*****  MODTRAN3 Version 1.3  12/1/95  *****
0 CARD 1  *****T   1    3    1    0    0    0    0    0    0    0    0    0   -1   0.000  -1.00
 co2mx co2rat ch4rat h2orat t_o3rat s_o3rat scalefreon    800.000000       2.42424250       1.00000000       1.00000000       1.00000000       1.00000000       1.00000000    
0 CARD 2  *****    0    0    0    0    0    0     0.000     0.000     0.000     0.000     0.000
0 CARD 3  *****    70.000     0.000   180.000     0.000     0.000     0.000    0
0 CARD 4  *****         2      2200         2         3
0 PROGRAM WILL COMPUTE RADIANCE                
0 ATMOSPHERIC MODEL
          TEMPERATURE =    1     TROPICAL MODEL      
          WATER VAPOR =    1     TROPICAL MODEL      
          OZONE       =    1     TROPICAL MODEL      
                      M4 =     1 M5 =     1 M6 =     1 MDEF =     1
0 SLANT PATH TO SPACE
          H1    =     70.000 KM
          HMIN  =      0.000 KM
          ANGLE =    180.000 DEG
0 FREQUENCY RANGE
             IV1 =         2 CM-1  (   5000.00 MICROMETERS)
             IV2 =      2200 CM-1  (      4.55 MICROMETERS)
             IDV =         2 CM-1
           IFWHM =         3 CM-1
1
  ATMOSPHERIC PROFILES

   I     Z       P       T        N2       CNTMSLF MOL SCAT     N-1     O3 (UV)  O2 (UV)
        (KM)    (MB)    (K)            (MOL/CM2 KM)   (-)       (-)  (ATM CM/KM) (ATM CM/KM)

   1     0.00 1013.000  300.7  7.572E-01 1.805E+21 9.082E-01 2.600E-04 2.604E-03 3.327E+04
   2     1.00  904.000  294.7  6.278E-01 8.495E+20 8.269E-01 2.370E-04 2.603E-03 2.913E+04
   3     2.00  805.000  288.7  5.187E-01 4.370E+20 7.517E-01 2.156E-04 2.510E-03 2.549E+04
   4     3.00  715.000  284.7  4.208E-01 1.118E+20 6.770E-01 1.944E-04 2.371E-03 2.209E+04
   5     4.00  633.000  278.0  3.459E-01 2.466E+19 6.138E-01 1.764E-04 2.184E-03 1.935E+04
   6     5.00  559.000  271.3  2.832E-01 1.154E+19 5.555E-01 1.597E-04 2.091E-03 1.695E+04
   7     6.00  492.000  264.6  2.307E-01 3.731E+18 5.013E-01 1.441E-04 1.998E-03 1.482E+04
   8     7.00  432.000  258.0  1.871E-01 1.147E+18 4.514E-01 1.298E-04 1.905E-03 1.296E+04
   9     8.00  378.000  251.3  1.510E-01 3.278E+17 4.055E-01 1.166E-04 1.812E-03 1.132E+04
  10     9.00  329.000  244.6  1.207E-01 7.614E+16 3.626E-01 1.043E-04 1.812E-03 9.852E+03
  11    10.00  286.000  238.0  9.634E-02 1.336E+16 3.239E-01 9.316E-05 1.811E-03 8.585E+03
  12    11.00  247.000  231.1  7.621E-02 1.560E+15 2.881E-01 8.286E-05 1.904E-03 7.457E+03
  13    12.00  213.000  224.6  6.000E-02 1.963E+14 2.557E-01 7.353E-05 1.997E-03 6.473E+03
  14    13.00  182.000  218.0  4.650E-02 1.789E+13 2.251E-01 6.473E-05 2.089E-03 5.579E+03
  15    14.00  156.000  211.3  3.637E-02 5.600E+12 1.990E-01 5.724E-05 2.088E-03 4.844E+03
  16    15.00  132.000  204.7  2.774E-02 1.793E+12 1.738E-01 5.000E-05 2.182E-03 4.155E+03
  17    16.00  111.000  198.0  2.097E-02 7.753E+11 1.511E-01 4.346E-05 2.181E-03 3.552E+03
  18    17.00   93.700  195.8  1.528E-02 5.310E+11 1.290E-01 3.710E-05 3.223E-03 2.983E+03
  19    18.00   78.900  199.8  1.040E-02 3.218E+11 1.065E-01 3.062E-05 5.319E-03 2.420E+03
  20    19.00   66.600  203.7  7.132E-03 1.953E+11 8.814E-02 2.535E-05 8.368E-03 1.976E+03
  21    20.00   56.500  207.7  4.937E-03 1.339E+11 7.333E-02 2.109E-05 1.026E-02 1.625E+03
  22    21.00   48.000  211.7  3.430E-03 9.579E+10 6.112E-02 1.758E-05 1.099E-02 1.341E+03
  23    22.00   40.900  215.6  2.401E-03 7.425E+10 5.114E-02 1.471E-05 1.227E-02 1.113E+03
  24    23.00   35.000  218.0  1.720E-03 5.678E+10 4.328E-02 1.245E-05 1.471E-02 9.364E+02
  25    24.00   30.000  220.2  1.238E-03 4.957E+10 3.673E-02 1.056E-05 1.578E-02 7.905E+02
  26    25.00   25.700  222.4  8.909E-04 3.663E+10 3.115E-02 8.959E-06 1.681E-02 6.675E+02
  27    30.00   12.200  233.3  1.824E-04 1.115E+10 1.410E-02 4.054E-06 1.310E-02 2.979E+02
  28    35.00    6.000  244.1  4.031E-05 3.206E+09 6.626E-03 1.906E-06 6.423E-03 1.392E+02
  29    40.00    3.050  255.0  9.545E-06 9.563E+08 3.224E-03 9.273E-07 2.417E-03 6.752E+01
  30    45.00    1.590  265.8  2.387E-06 2.838E+08 1.613E-03 4.638E-07 7.252E-04 3.373E+01
  31    50.00    0.854  271.2  6.616E-07 8.666E+07 8.489E-04 2.441E-07 2.375E-04 1.774E+01
  32    70.00    0.058  219.9  4.641E-09 3.676E+05 7.110E-05 2.045E-08 2.132E-06 1.485E+00
  33   100.00    0.000  191.7  1.516E-13 1.014E-01 4.064E-07 1.169E-10 1.625E-08 6.498E-03
1
  ATMOSPHERIC PROFILES

   I     Z       P       T      CNTMFRN     HNO3    AEROSOL 1 AEROSOL 2 AEROSOL 3 AEROSOL 4 AER1*RH   CIRRUS         RH
        (KM)    (MB)    (K)   MOL/CM2 KM ATM CM/KM   (-)       (-)       (-)       (-)       (-)       (-)      (PERCNT)

   1     0.00 1013.000  300.7  6.403E+22 0.000E+00 0.000E+00 0.000E+00 0.000E+00 0.000E+00 0.000E+00 0.000E+00 7.536E+01
   2     1.00  904.000  294.7  4.028E+22 0.000E+00 0.000E+00 0.000E+00 0.000E+00 0.000E+00 0.000E+00 0.000E+00 7.258E+01
   3     2.00  805.000  288.7  2.637E+22 0.000E+00 0.000E+00 0.000E+00 0.000E+00 0.000E+00 0.000E+00 0.000E+00 7.429E+01
   4     3.00  715.000  284.7  1.210E+22 0.000E+00 0.000E+00 0.000E+00 0.000E+00 0.000E+00 0.000E+00 0.000E+00 4.809E+01
   5     4.00  633.000  278.0  5.176E+21 0.000E+00 0.000E+00 0.000E+00 0.000E+00 0.000E+00 0.000E+00 0.000E+00 3.477E+01
   6     5.00  559.000  271.3  3.208E+21 0.000E+00 0.000E+00 0.000E+00 0.000E+00 0.000E+00 0.000E+00 0.000E+00 3.754E+01
   7     6.00  492.000  264.6  1.648E+21 0.000E+00 0.000E+00 0.000E+00 0.000E+00 0.000E+00 0.000E+00 0.000E+00 3.461E+01
   8     7.00  432.000  258.0  8.239E+20 0.000E+00 0.000E+00 0.000E+00 0.000E+00 0.000E+00 0.000E+00 0.000E+00 3.179E+01
   9     8.00  378.000  251.3  3.958E+20 0.000E+00 0.000E+00 0.000E+00 0.000E+00 0.000E+00 0.000E+00 0.000E+00 2.926E+01
  10     9.00  329.000  244.6  1.706E+20 0.000E+00 0.000E+00 0.000E+00 0.000E+00 0.000E+00 0.000E+00 0.000E+00 2.515E+01
  11    10.00  286.000  238.0  6.387E+19 0.000E+00 0.000E+00 0.000E+00 0.000E+00 0.000E+00 0.000E+00 0.000E+00 1.932E+01
  12    11.00  247.000  231.1  1.941E+19 0.000E+00 0.000E+00 0.000E+00 0.000E+00 0.000E+00 0.000E+00 0.000E+00 1.301E+01
  13    12.00  213.000  224.6  6.112E+18 0.000E+00 0.000E+00 0.000E+00 0.000E+00 0.000E+00 0.000E+00 0.000E+00 9.139E+00
  14    13.00  182.000  218.0  1.624E+18 0.000E+00 0.000E+00 0.000E+00 0.000E+00 0.000E+00 0.000E+00 0.000E+00 5.798E+00
  15    14.00  156.000  211.3  8.036E+17 0.000E+00 0.000E+00 0.000E+00 0.000E+00 0.000E+00 0.000E+00 0.000E+00 7.290E+00
  16    15.00  132.000  204.7  3.972E+17 0.000E+00 0.000E+00 0.000E+00 0.000E+00 0.000E+00 0.000E+00 0.000E+00 9.737E+00
  17    16.00  111.000  198.0  2.271E+17 0.000E+00 0.000E+00 0.000E+00 0.000E+00 0.000E+00 0.000E+00 0.000E+00 1.641E+01
  18    17.00   93.700  195.8  1.604E+17 0.000E+00 0.000E+00 0.000E+00 0.000E+00 0.000E+00 0.000E+00 0.000E+00 1.880E+01
  19    18.00   78.900  199.8  1.030E+17 0.000E+00 0.000E+00 0.000E+00 0.000E+00 0.000E+00 0.000E+00 0.000E+00 8.149E+00
  20    19.00   66.600  203.7  6.646E+16 0.000E+00 0.000E+00 0.000E+00 0.000E+00 0.000E+00 0.000E+00 0.000E+00 3.680E+00
  21    20.00   56.500  207.7  4.579E+16 0.000E+00 0.000E+00 0.000E+00 0.000E+00 0.000E+00 0.000E+00 0.000E+00 1.787E+00
  22    21.00   48.000  211.7  3.228E+16 0.000E+00 0.000E+00 0.000E+00 0.000E+00 0.000E+00 0.000E+00 0.000E+00 9.069E-01
  23    22.00   40.900  215.6  2.378E+16 0.000E+00 0.000E+00 0.000E+00 0.000E+00 0.000E+00 0.000E+00 0.000E+00 4.958E-01
  24    23.00   35.000  218.0  1.760E+16 0.000E+00 0.000E+00 0.000E+00 0.000E+00 0.000E+00 0.000E+00 0.000E+00 3.266E-01
  25    24.00   30.000  220.2  1.395E+16 0.000E+00 0.000E+00 0.000E+00 0.000E+00 0.000E+00 0.000E+00 0.000E+00 2.369E-01
  26    25.00   25.700  222.4  1.017E+16 0.000E+00 0.000E+00 0.000E+00 0.000E+00 0.000E+00 0.000E+00 0.000E+00 1.590E-01
  27    30.00   12.200  233.3  2.540E+15 0.000E+00 0.000E+00 0.000E+00 0.000E+00 0.000E+00 0.000E+00 0.000E+00 2.788E-02
  28    35.00    6.000  244.1  6.402E+14 0.000E+00 0.000E+00 0.000E+00 0.000E+00 0.000E+00 0.000E+00 0.000E+00 5.396E-03
  29    40.00    3.050  255.0  1.701E+14 0.000E+00 0.000E+00 0.000E+00 0.000E+00 0.000E+00 0.000E+00 0.000E+00 1.166E-03
  30    45.00    1.590  265.8  4.636E+13 0.000E+00 0.000E+00 0.000E+00 0.000E+00 0.000E+00 0.000E+00 0.000E+00 2.763E-04
  31    50.00    0.854  271.2  1.348E+13 0.000E+00 0.000E+00 0.000E+00 0.000E+00 0.000E+00 0.000E+00 0.000E+00 1.036E-04
  32    70.00    0.058  219.9  7.356E+10 0.000E+00 0.000E+00 0.000E+00 0.000E+00 0.000E+00 0.000E+00 0.000E+00 6.675E-04
  33   100.00    0.000  191.7  2.208E+05 0.000E+00 0.000E+00 0.000E+00 0.000E+00 0.000E+00 0.000E+00 0.000E+00 1.544E-05
1
  ATMOSPHERIC PROFILES

   I      Z       P       T      H2O      O3       CO2      CO       CH4      N2O      O2       NH3      NO       NO2      SO2
         (KM)    (MB)    (K)  (                                    MBAR                                                       )
   1     0.00 1013.000  300.7  2.00E+01 2.87E-02 8.00E+02 0.00E+00 1.70E+00 0.00E+00 2.09E+05 0.00E+00 0.00E+00 0.00E+00 0.00E+00
   2     1.00  904.000  294.7  1.37E+01 3.15E-02 8.00E+02 0.00E+00 1.70E+00 0.00E+00 2.09E+05 0.00E+00 0.00E+00 0.00E+00 0.00E+00
   3     2.00  805.000  288.7  9.85E+00 3.34E-02 8.00E+02 0.00E+00 1.70E+00 0.00E+00 2.09E+05 0.00E+00 0.00E+00 0.00E+00 0.00E+00
   4     3.00  715.000  284.7  4.98E+00 3.50E-02 8.00E+02 0.00E+00 1.70E+00 0.00E+00 2.09E+05 0.00E+00 0.00E+00 0.00E+00 0.00E+00
   5     4.00  633.000  278.0  2.34E+00 3.56E-02 8.00E+02 0.00E+00 1.70E+00 0.00E+00 2.09E+05 0.00E+00 0.00E+00 0.00E+00 0.00E+00
   6     5.00  559.000  271.3  1.60E+00 3.77E-02 8.00E+02 0.00E+00 1.70E+00 0.00E+00 2.09E+05 0.00E+00 0.00E+00 0.00E+00 0.00E+00
   7     6.00  492.000  264.6  9.10E-01 3.99E-02 8.00E+02 0.00E+00 1.70E+00 0.00E+00 2.09E+05 0.00E+00 0.00E+00 0.00E+00 0.00E+00
   8     7.00  432.000  258.0  5.05E-01 4.22E-02 8.00E+02 0.00E+00 1.70E+00 0.00E+00 2.09E+05 0.00E+00 0.00E+00 0.00E+00 0.00E+00
   9     8.00  378.000  251.3  2.70E-01 4.47E-02 8.00E+02 0.00E+00 1.70E+00 0.00E+00 2.09E+05 0.00E+00 0.00E+00 0.00E+00 0.00E+00
  10     9.00  329.000  244.6  1.30E-01 5.00E-02 8.00E+02 0.00E+00 1.69E+00 0.00E+00 2.09E+05 0.00E+00 0.00E+00 0.00E+00 0.00E+00
  11    10.00  286.000  238.0  5.44E-02 5.60E-02 8.00E+02 0.00E+00 1.68E+00 0.00E+00 2.09E+05 0.00E+00 0.00E+00 0.00E+00 0.00E+00
  12    11.00  247.000  231.1  1.86E-02 6.61E-02 8.00E+02 0.00E+00 1.67E+00 0.00E+00 2.09E+05 0.00E+00 0.00E+00 0.00E+00 0.00E+00
  13    12.00  213.000  224.6  6.60E-03 7.81E-02 8.00E+02 0.00E+00 1.66E+00 0.00E+00 2.09E+05 0.00E+00 0.00E+00 0.00E+00 0.00E+00
  14    13.00  182.000  218.0  1.99E-03 9.29E-02 8.00E+02 0.00E+00 1.64E+00 0.00E+00 2.09E+05 0.00E+00 0.00E+00 0.00E+00 0.00E+00
  15    14.00  156.000  211.3  1.11E-03 1.05E-01 8.00E+02 0.00E+00 1.63E+00 0.00E+00 2.09E+05 0.00E+00 0.00E+00 0.00E+00 0.00E+00
  16    15.00  132.000  204.7  6.31E-04 1.26E-01 8.00E+02 0.00E+00 1.61E+00 0.00E+00 2.09E+05 0.00E+00 0.00E+00 0.00E+00 0.00E+00
  17    16.00  111.000  198.0  4.15E-04 1.44E-01 8.00E+02 0.00E+00 1.58E+00 0.00E+00 2.09E+05 0.00E+00 0.00E+00 0.00E+00 0.00E+00
  18    17.00   93.700  195.8  3.43E-04 2.50E-01 8.00E+02 0.00E+00 1.55E+00 0.00E+00 2.09E+05 0.00E+00 0.00E+00 0.00E+00 0.00E+00
  19    18.00   78.900  199.8  2.67E-04 5.00E-01 8.00E+02 0.00E+00 1.52E+00 0.00E+00 2.09E+05 0.00E+00 0.00E+00 0.00E+00 0.00E+00
  20    19.00   66.600  203.7  2.08E-04 9.50E-01 8.00E+02 0.00E+00 1.48E+00 0.00E+00 2.09E+05 0.00E+00 0.00E+00 0.00E+00 0.00E+00
  21    20.00   56.500  207.7  1.72E-04 1.40E+00 8.00E+02 0.00E+00 1.42E+00 0.00E+00 2.09E+05 0.00E+00 0.00E+00 0.00E+00 0.00E+00
  22    21.00   48.000  211.7  1.46E-04 1.80E+00 8.00E+02 0.00E+00 1.36E+00 0.00E+00 2.09E+05 0.00E+00 0.00E+00 0.00E+00 0.00E+00
  23    22.00   40.900  215.6  1.28E-04 2.40E+00 8.00E+02 0.00E+00 1.27E+00 0.00E+00 2.09E+05 0.00E+00 0.00E+00 0.00E+00 0.00E+00
  24    23.00   35.000  218.0  1.12E-04 3.40E+00 8.00E+02 0.00E+00 1.19E+00 0.00E+00 2.09E+05 0.00E+00 0.00E+00 0.00E+00 0.00E+00
  25    24.00   30.000  220.2  1.05E-04 4.30E+00 8.00E+02 0.00E+00 1.12E+00 0.00E+00 2.09E+05 0.00E+00 0.00E+00 0.00E+00 0.00E+00
  26    25.00   25.700  222.4  9.02E-05 5.40E+00 8.00E+02 0.00E+00 1.05E+00 0.00E+00 2.09E+05 0.00E+00 0.00E+00 0.00E+00 0.00E+00
  27    30.00   12.200  233.3  4.97E-05 9.30E+00 8.00E+02 0.00E+00 9.14E-01 0.00E+00 2.09E+05 0.00E+00 0.00E+00 0.00E+00 0.00E+00
  28    35.00    6.000  244.1  2.67E-05 9.70E+00 8.00E+02 0.00E+00 7.46E-01 0.00E+00 2.09E+05 0.00E+00 0.00E+00 0.00E+00 0.00E+00
  29    40.00    3.050  255.0  1.46E-05 7.50E+00 8.00E+02 0.00E+00 5.64E-01 0.00E+00 2.09E+05 0.00E+00 0.00E+00 0.00E+00 0.00E+00
  30    45.00    1.590  265.8  7.94E-06 4.50E+00 8.00E+02 0.00E+00 3.63E-01 0.00E+00 2.09E+05 0.00E+00 0.00E+00 0.00E+00 0.00E+00
  31    50.00    0.854  271.2  4.38E-06 2.80E+00 8.00E+02 0.00E+00 2.10E-01 0.00E+00 2.09E+05 0.00E+00 0.00E+00 0.00E+00 0.00E+00
  32    70.00    0.058  219.9  2.86E-07 3.00E-01 8.00E+02 0.00E+00 1.50E-01 0.00E+00 2.09E+05 0.00E+00 0.00E+00 0.00E+00 0.00E+00
  33   100.00    0.000  191.7  1.50E-10 4.00E-01 4.73E+02 0.00E+00 1.20E-01 0.00E+00 1.60E+05 0.00E+00 0.00E+00 0.00E+00 0.00E+00
1
  ATMOSPHERIC PROFILES

   I      Z       P       T     CFC-11   CFC-12   CFC-13   CFC-14   CFC-22   CFC-113  CFC-114  CFC-115  CLONO2    HNO4    CHCL2F 
                                 CCL4     N2O5  
         (KM)    (MB)    (K)  (                                 ATM CM/KM                                                     )
   1     0.00 1013.000  300.7  1.27E-05 2.18E-05 9.08E-14 9.08E-14 5.45E-06 1.72E-06 1.09E-06 9.08E-14 5.22E-07 3.94E-08 9.08E-14
                               1.18E-05 2.20E-11
   2     1.00  904.000  294.7  1.16E-05 1.98E-05 8.26E-14 8.26E-14 4.95E-06 1.57E-06 9.92E-07 8.26E-14 4.24E-07 1.77E-07 8.26E-14
                               1.07E-05 7.88E-11
   3     2.00  805.000  288.7  1.05E-05 1.80E-05 7.51E-14 7.51E-14 4.50E-06 1.43E-06 9.01E-07 7.51E-14 3.38E-07 2.88E-07 7.51E-14
                               9.77E-06 1.25E-10
   4     3.00  715.000  284.7  9.47E-06 1.62E-05 6.77E-14 6.77E-14 4.05E-06 1.29E-06 8.12E-07 6.77E-14 2.63E-07 3.75E-07 6.77E-14
                               8.80E-06 1.61E-10
   5     4.00  633.000  278.0  8.59E-06 1.47E-05 6.13E-14 6.13E-14 3.67E-06 1.17E-06 7.36E-07 6.13E-14 2.00E-07 4.44E-07 6.13E-14
                               7.97E-06 1.90E-10
   6     5.00  559.000  271.3  7.77E-06 1.33E-05 5.55E-14 5.55E-14 3.32E-06 1.05E-06 6.66E-07 5.55E-14 1.53E-07 1.01E-06 5.55E-14
                               7.20E-06 2.00E-10
   7     6.00  492.000  264.6  7.01E-06 1.20E-05 5.01E-14 5.01E-14 2.99E-06 9.52E-07 6.01E-07 5.01E-14 1.13E-07 1.46E-06 5.01E-14
                               6.49E-06 2.07E-10
   8     7.00  432.000  258.0  6.32E-06 1.08E-05 4.51E-14 4.51E-14 2.69E-06 8.57E-07 5.41E-07 4.51E-14 7.87E-08 1.80E-06 4.51E-14
                               5.83E-06 2.09E-10
   9     8.00  378.000  251.3  5.67E-06 9.73E-06 4.05E-14 4.05E-14 2.42E-06 7.70E-07 4.86E-07 4.05E-14 5.02E-08 2.06E-06 4.05E-14
                               5.23E-06 2.09E-10
  10     9.00  329.000  244.6  5.07E-06 8.69E-06 3.62E-14 3.62E-14 2.16E-06 6.88E-07 4.35E-07 3.62E-14 4.38E-08 1.78E-06 3.62E-14
                               4.67E-06 2.09E-10
  11    10.00  286.000  238.0  4.52E-06 7.75E-06 3.24E-14 3.24E-14 1.93E-06 6.13E-07 3.88E-07 3.24E-14 3.80E-08 1.53E-06 3.24E-14
                               4.18E-06 2.06E-10
  12    11.00  247.000  231.1  4.01E-06 6.89E-06 2.88E-14 2.88E-14 1.71E-06 5.45E-07 3.46E-07 2.88E-14 3.29E-08 1.31E-06 2.88E-14
                               3.71E-06 2.01E-10
  13    12.00  213.000  224.6  3.55E-06 6.11E-06 2.55E-14 2.55E-14 1.52E-06 4.83E-07 3.07E-07 2.55E-14 2.84E-08 1.12E-06 2.55E-14
                               3.30E-06 1.93E-10
  14    13.00  182.000  218.0  3.04E-06 5.30E-06 2.25E-14 2.25E-14 1.33E-06 4.17E-07 2.67E-07 2.25E-14 1.80E-07 1.27E-06 2.25E-14
                               2.81E-06 9.91E-09
  15    14.00  156.000  211.3  2.61E-06 4.61E-06 1.99E-14 1.99E-14 1.16E-06 3.62E-07 2.34E-07 1.99E-14 2.97E-07 1.38E-06 1.99E-14
                               2.41E-06 1.74E-08
  16    15.00  132.000  204.7  2.21E-06 3.97E-06 1.74E-14 1.74E-14 1.00E-06 3.10E-07 2.02E-07 1.74E-14 3.79E-07 1.43E-06 1.74E-14
                               2.03E-06 2.27E-08
  17    16.00  111.000  198.0  1.86E-06 3.40E-06 1.51E-14 1.51E-14 8.64E-07 2.64E-07 1.74E-07 1.51E-14 4.33E-07 1.44E-06 1.51E-14
                               1.71E-06 2.63E-08
  18    17.00   93.700  195.8  1.45E-06 2.77E-06 1.29E-14 1.29E-14 7.17E-07 2.13E-07 1.44E-07 1.29E-14 1.31E-06 1.84E-06 1.29E-14
                               1.31E-06 1.13E-07
  19    18.00   78.900  199.8  1.08E-06 2.18E-06 1.06E-14 1.06E-14 5.75E-07 1.65E-07 1.15E-07 1.06E-14 1.86E-06 2.02E-06 1.06E-14
                               9.64E-07 1.68E-07
  20    19.00   66.600  203.7  8.01E-07 1.71E-06 8.81E-15 8.81E-15 4.62E-07 1.28E-07 9.27E-08 8.81E-15 2.18E-06 2.09E-06 8.81E-15
                               6.99E-07 2.01E-07
  21    20.00   56.500  207.7  5.88E-07 1.35E-06 7.33E-15 7.33E-15 3.73E-07 9.97E-08 7.47E-08 7.33E-15 2.35E-06 2.09E-06 7.33E-15
                               5.00E-07 2.19E-07
  22    21.00   48.000  211.7  4.19E-07 1.04E-06 6.11E-15 6.11E-15 2.99E-07 7.56E-08 5.96E-08 6.11E-15 2.81E-06 2.15E-06 6.11E-15
                               3.49E-07 2.53E-07
  23    22.00   40.900  215.6  2.92E-07 8.07E-07 5.11E-15 5.11E-15 2.40E-07 5.70E-08 4.76E-08 5.11E-15 3.07E-06 2.14E-06 5.11E-15
                               2.36E-07 2.71E-07
  24    23.00   35.000  218.0  1.97E-07 6.27E-07 4.33E-15 4.33E-15 1.95E-07 4.30E-08 3.83E-08 4.33E-15 3.20E-06 2.10E-06 4.33E-15
                               1.52E-07 2.79E-07
  25    24.00   30.000  220.2  1.25E-07 4.84E-07 3.67E-15 3.67E-15 1.58E-07 3.20E-08 3.09E-08 3.67E-15 3.23E-06 2.03E-06 3.67E-15
                               8.81E-08 2.79E-07
  26    25.00   25.700  222.4  8.49E-08 3.70E-07 3.11E-15 3.11E-15 1.27E-07 2.37E-08 2.47E-08 3.11E-15 3.03E-06 1.81E-06 3.11E-15
                               5.87E-08 2.40E-07
  27    30.00   12.200  233.3  5.50E-09 8.29E-08 1.41E-15 1.41E-15 4.26E-08 4.11E-09 7.94E-09 1.41E-15 1.61E-06 7.18E-07 1.41E-15
                               2.47E-09 7.78E-08
  28    35.00    6.000  244.1  1.31E-10 1.41E-08 6.62E-16 6.62E-16 1.37E-08 4.75E-10 2.42E-09 6.62E-16 3.47E-07 9.73E-08 6.62E-16
                               2.62E-11 7.16E-09
  29    40.00    3.050  255.0  5.96E-13 1.96E-09 3.22E-16 3.22E-16 4.48E-09 3.96E-11 7.48E-10 3.22E-16 1.38E-08 3.21E-09 3.22E-16
                               1.28E-14 6.86E-11
  30    45.00    1.590  265.8  1.48E-14 3.44E-10 1.61E-16 1.61E-16 1.67E-09 5.18E-12 2.61E-10 1.61E-16 2.71E-10 1.41E-10 1.61E-16
                               8.98E-17 6.35E-13
  31    50.00    0.854  271.2  5.06E-16 7.23E-11 8.48E-17 8.48E-17 7.45E-10 8.40E-13 1.06E-10 8.48E-17 3.96E-12 6.47E-12 8.48E-17
                               9.27E-19 5.34E-15
  32    70.00    0.058  219.9  3.62E-21 2.77E-13 7.11E-18 7.11E-18 5.11E-11 1.25E-15 4.16E-12 7.11E-18 5.14E-19 2.28E-16 7.11E-18
                               7.02E-26 5.83E-23
  33   100.00    0.000  191.7  1.26E-30 1.01E-18 4.06E-20 4.06E-20 7.27E-14 5.32E-22 8.65E-16 4.06E-20 3.28E-35 1.35E-31 4.06E-20
                               2.07E-38 0.00E+00


 CASE 3A: GIVEN H1,H2=SPACE,ANGLE



 TANGENT PATH WITH H1 =     70.000 AND ANGLE =    180.000 INTERSECTS THE EARTH

          H2 HAS BEEN RESET TO 0.0 AND LEN TO 0



 SLANT PATH PARAMETERS IN STANDARD FORM

          H1      =     70.000 KM
          H2      =      0.000 KM
          ANGLE   =    180.000 DEG
          PHI     =      0.000 DEG
          HMIN    =      0.000 KM
          LEN     =          0
1CALCULATION OF THE REFRACTED PATH THROUGH THE ATMOSPHERE


  I       ALTITUDE        THETA  DRANGE    RANGE    DBETA     BETA     PHI     DBEND  BENDING    PBAR    TBAR   RHOBAR
      FROM       TO
      (KM)      (KM)      (DEG)    (KM)     (KM)    (DEG)    (DEG)    (DEG)    (DEG)    (DEG)    (MB)    (K)  (GM CM-3)

          H2 TO H1

  1    0.000    1.000    0.000    1.000    1.000    0.000    0.000  180.000    0.000    0.000  958.317  297.74 1.12E-03
  2    1.000    2.000    0.000    1.000    2.000    0.000    0.000  180.000    0.000    0.000  854.330  291.74 1.02E-03
  3    2.000    3.000    0.000    1.000    3.000    0.000    0.000  180.000    0.000    0.000  759.895  286.73 9.22E-04
  4    3.000    4.000    0.000    1.000    4.000    0.000    0.000  180.000    0.000    0.000  673.837  281.39 8.33E-04
  5    4.000    5.000    0.000    1.000    5.000    0.000    0.000  180.000    0.000    0.000  595.850  274.69 7.55E-04
  6    5.000    6.000    0.000    1.000    6.000    0.000    0.000  180.000    0.000    0.000  525.360  267.99 6.82E-04
  7    6.000    7.000    0.000    1.000    7.000    0.000    0.000  180.000    0.000    0.000  461.874  261.34 6.15E-04
  8    7.000    8.000    0.000    1.000    8.000    0.000    0.000  180.000    0.000    0.000  404.882  254.70 5.53E-04
  9    8.000    9.000    0.000    1.000    9.000    0.000    0.000  180.000    0.000    0.000  353.390  248.00 4.96E-04
 10    9.000   10.000    0.000    1.000   10.000    0.000    0.000  180.000    0.000    0.000  307.402  241.35 4.43E-04
 11   10.000   11.000    0.000    1.000   11.000    0.000    0.000  180.000    0.000    0.000  266.404  234.60 3.95E-04
 12   11.000   12.000    0.000    1.000   12.000    0.000    0.000  180.000    0.000    0.000  229.919  227.90 3.51E-04
 13   12.000   13.000    0.000    1.000   13.000    0.000    0.000  180.000    0.000    0.000  197.423  221.35 3.10E-04
 14   13.000   14.000    0.000    1.000   14.000    0.000    0.000  180.000    0.000    0.000  168.932  214.70 2.74E-04
 15   14.000   15.000    0.000    1.000   15.000    0.000    0.000  180.000    0.000    0.000  143.937  208.06 2.41E-04
 16   15.000   16.000    0.000    1.000   16.000    0.000    0.000  180.000    0.000    0.000  121.442  201.41 2.10E-04
 17   16.000   17.000    0.000    1.000   17.000    0.000    0.000  180.000    0.000    0.000  102.334  196.93 1.81E-04
 18   17.000   18.000    0.000    1.000   18.000    0.000    0.000  180.000    0.000    0.000   86.325  197.73 1.52E-04
 19   18.000   19.000    0.000    1.000   19.000    0.000    0.000  180.000    0.000    0.000   72.770  201.68 1.25E-04
 20   19.000   20.000    0.000    1.000   20.000    0.000    0.000  180.000    0.000    0.000   61.566  205.63 1.04E-04
 21   20.000   21.000    0.000    1.000   21.000    0.000    0.000  180.000    0.000    0.000   52.264  209.63 8.66E-05
 22   21.000   22.000    0.000    1.000   22.000    0.000    0.000  180.000    0.000    0.000   44.461  213.59 7.23E-05
 23   22.000   23.000    0.000    1.000   23.000    0.000    0.000  180.000    0.000    0.000   37.955  216.76 6.09E-05
 24   23.000   24.000    0.000    1.000   24.000    0.000    0.000  180.000    0.000    0.000   32.504  219.07 5.16E-05
 25   24.000   25.000    0.000    1.000   25.000    0.000    0.000  180.000    0.000    0.000   27.854  221.27 4.38E-05
 26   25.000   30.000    0.000    5.000   30.000    0.000    0.000  180.000    0.000    0.000   19.003  227.09 2.78E-05
 27   30.000   35.000    0.000    5.000   35.000    0.000    0.000  180.000    0.000    0.000    9.123  237.99 1.28E-05
 28   35.000   40.000    0.000    5.000   40.000    0.000    0.000  180.000    0.000    0.000    4.536  248.86 6.10E-06
 29   40.000   45.000    0.000    5.000   45.000    0.000    0.000  180.000    0.000    0.000    2.325  259.74 3.01E-06
 30   45.000   50.000    0.000    5.000   50.000    0.000    0.000  180.000    0.000    0.000    1.223  268.20 1.54E-06
 31   50.000   70.000    0.000   20.000   70.000    0.000    0.000  180.000    0.000    0.000    0.445  254.38 4.05E-07




1CUMULATIVE ABSORBER AMOUNTS FOR THE PATH FROM H1 TO Z

  J     Z        TBAR     HNO3        O3 UV      CNTMSLF1   CNTMSLF2    CNTMFRN      O2
       (KM)       (K)   (ATM CM)    (ATM CM)    (MOL CM-2)  (MOL CM-2)  (MOL CM-2)(MOL CM-2)

  1   50.000   254.38   0.000E+00   9.988E-04   3.159E+08   3.653E+08   5.147E+13   1.311E+02
  2   45.000   268.20   0.000E+00   3.183E-03   1.147E+09   1.007E+09   1.846E+14   2.555E+02
  3   40.000   259.74   0.000E+00   1.021E-02   3.915E+09   3.795E+09   6.606E+14   4.989E+02
  4   35.000   248.86   0.000E+00   3.070E-02   1.321E+10   1.597E+10   2.434E+15   9.942E+02
  5   30.000   237.99   0.000E+00   7.755E-02   4.509E+10   6.733E+10   9.327E+15   2.037E+03
  6   25.000   227.09   0.000E+00   1.519E-01   1.522E+11   2.724E+11   3.683E+16   4.327E+03
  7   24.000   221.27   0.000E+00   1.682E-01   1.950E+11   3.612E+11   4.880E+16   5.055E+03
  8   23.000   219.07   0.000E+00   1.835E-01   2.481E+11   4.746E+11   6.450E+16   5.916E+03
  9   22.000   216.76   0.000E+00   1.970E-01   3.132E+11   6.180E+11   8.504E+16   6.938E+03
 10   21.000   213.59   0.000E+00   2.086E-01   3.978E+11   8.116E+11   1.128E+17   8.162E+03
 11   20.000   209.63   0.000E+00   2.192E-01   5.116E+11   1.085E+12   1.515E+17   9.641E+03
 12   19.000   205.63   0.000E+00   2.285E-01   6.742E+11   1.493E+12   2.070E+17   1.144E+04
 13   18.000   201.68   0.000E+00   2.354E-01   9.275E+11   2.156E+12   2.904E+17   1.363E+04
 14   17.000   197.73   0.000E+00   2.397E-01   1.345E+12   3.297E+12   4.200E+17   1.632E+04
 15   16.000   196.93   0.000E+00   2.424E-01   1.991E+12   5.073E+12   6.118E+17   1.958E+04
 16   15.000   201.41   0.000E+00   2.445E-01   3.205E+12   8.263E+12   9.161E+17   2.342E+04
 17   14.000   208.06   0.000E+00   2.467E-01   6.548E+12   1.643E+13   1.493E+18   2.791E+04
 18   13.000   214.70   0.000E+00   2.488E-01   1.713E+13   4.033E+13   2.659E+18   3.311E+04
 19   12.000   221.35   0.000E+00   2.508E-01   9.162E+13   1.948E+14   6.046E+18   3.913E+04
 20   11.000   227.90   0.000E+00   2.528E-01   7.495E+14   1.439E+15   1.756E+19   4.608E+04
 21   10.000   234.60   0.000E+00   2.546E-01   6.243E+15   1.081E+16   5.489E+19   5.409E+04
 22    9.000   241.35   0.000E+00   2.564E-01   4.231E+16   6.557E+16   1.635E+20   6.329E+04
 23    8.000   248.00   0.000E+00   2.582E-01   2.147E+17   2.954E+17   4.312E+20   7.386E+04
 24    7.000   254.70   0.000E+00   2.601E-01   8.689E+17   1.046E+18   1.015E+21   8.598E+04
 25    6.000   261.34   0.000E+00   2.620E-01   3.060E+18   3.155E+18   2.204E+21   9.986E+04
 26    5.000   267.99   0.000E+00   2.641E-01   9.975E+18   8.535E+18   4.546E+21   1.157E+05
 27    4.000   274.69   0.000E+00   2.662E-01   2.725E+19   1.876E+19   8.660E+21   1.338E+05
 28    3.000   281.39   0.000E+00   2.685E-01   8.490E+19   4.215E+19   1.682E+22   1.545E+05
 29    2.000   286.73   0.000E+00   2.709E-01   3.234E+20   1.036E+20   3.514E+22   1.783E+05
 30    1.000   291.74   0.000E+00   2.735E-01   9.440E+20   1.770E+20   6.797E+22   2.056E+05
 31    0.000   297.74   0.000E+00   2.761E-01   2.212E+21   1.159E+20   1.192E+23   2.367E+05



1 J     Z       N2 CONT    MOL SCAT       AER 1       AER 2       AER 3       AER 4       CIRRUS
       (KM)

  1   50.000   2.649E-06   6.273E-03   0.000E+00   0.000E+00   0.000E+00   0.000E+00   0.000E+00
  2   45.000   9.373E-06   1.222E-02   0.000E+00   0.000E+00   0.000E+00   0.000E+00   0.000E+00
  3   40.000   3.520E-05   2.385E-02   0.000E+00   0.000E+00   0.000E+00   0.000E+00   0.000E+00
  4   35.000   1.420E-04   4.747E-02   0.000E+00   0.000E+00   0.000E+00   0.000E+00   0.000E+00
  5   30.000   6.127E-04   9.695E-02   0.000E+00   0.000E+00   0.000E+00   0.000E+00   0.000E+00
  6   25.000   2.846E-03   2.045E-01   0.000E+00   0.000E+00   0.000E+00   0.000E+00   0.000E+00
  7   24.000   3.902E-03   2.384E-01   0.000E+00   0.000E+00   0.000E+00   0.000E+00   0.000E+00
  8   23.000   5.367E-03   2.783E-01   0.000E+00   0.000E+00   0.000E+00   0.000E+00   0.000E+00
  9   22.000   7.409E-03   3.254E-01   0.000E+00   0.000E+00   0.000E+00   0.000E+00   0.000E+00
 10   21.000   1.029E-02   3.814E-01   0.000E+00   0.000E+00   0.000E+00   0.000E+00   0.000E+00
 11   20.000   1.443E-02   4.484E-01   0.000E+00   0.000E+00   0.000E+00   0.000E+00   0.000E+00
 12   19.000   2.040E-02   5.289E-01   0.000E+00   0.000E+00   0.000E+00   0.000E+00   0.000E+00
 13   18.000   2.906E-02   6.259E-01   0.000E+00   0.000E+00   0.000E+00   0.000E+00   0.000E+00
 14   17.000   4.175E-02   7.433E-01   0.000E+00   0.000E+00   0.000E+00   0.000E+00   0.000E+00
 15   16.000   5.972E-02   8.831E-01   0.000E+00   0.000E+00   0.000E+00   0.000E+00   0.000E+00
 16   15.000   8.392E-02   1.045E+00   0.000E+00   0.000E+00   0.000E+00   0.000E+00   0.000E+00
 17   14.000   1.158E-01   1.231E+00   0.000E+00   0.000E+00   0.000E+00   0.000E+00   0.000E+00
 18   13.000   1.570E-01   1.443E+00   0.000E+00   0.000E+00   0.000E+00   0.000E+00   0.000E+00
 19   12.000   2.100E-01   1.683E+00   0.000E+00   0.000E+00   0.000E+00   0.000E+00   0.000E+00
 20   11.000   2.778E-01   1.955E+00   0.000E+00   0.000E+00   0.000E+00   0.000E+00   0.000E+00
 21   10.000   3.636E-01   2.260E+00   0.000E+00   0.000E+00   0.000E+00   0.000E+00   0.000E+00
 22    9.000   4.717E-01   2.603E+00   0.000E+00   0.000E+00   0.000E+00   0.000E+00   0.000E+00
 23    8.000   6.070E-01   2.987E+00   0.000E+00   0.000E+00   0.000E+00   0.000E+00   0.000E+00
 24    7.000   7.753E-01   3.415E+00   0.000E+00   0.000E+00   0.000E+00   0.000E+00   0.000E+00
 25    6.000   9.834E-01   3.891E+00   0.000E+00   0.000E+00   0.000E+00   0.000E+00   0.000E+00
 26    5.000   1.239E+00   4.419E+00   0.000E+00   0.000E+00   0.000E+00   0.000E+00   0.000E+00
 27    4.000   1.553E+00   5.003E+00   0.000E+00   0.000E+00   0.000E+00   0.000E+00   0.000E+00
 28    3.000   1.935E+00   5.648E+00   0.000E+00   0.000E+00   0.000E+00   0.000E+00   0.000E+00
 29    2.000   2.403E+00   6.362E+00   0.000E+00   0.000E+00   0.000E+00   0.000E+00   0.000E+00
 30    1.000   2.975E+00   7.150E+00   0.000E+00   0.000E+00   0.000E+00   0.000E+00   0.000E+00
 31    0.000   3.665E+00   8.017E+00   0.000E+00   0.000E+00   0.000E+00   0.000E+00   0.000E+00



1  J    Z       H2O       O3        CO2       CO        CH4       N2O       O2        NH3       NO        NO2       SO2
      (KM)    (                                                      ATM CM                                             )

   1   50.00  3.73E-03  9.99E-04  5.02E-01  0.00E+00  1.19E-04  0.00E+00  1.31E+02  0.00E+00  0.00E+00  0.00E+00  0.00E+00
   2   45.00  7.46E-03  3.18E-03  9.77E-01  0.00E+00  2.90E-04  0.00E+00  2.55E+02  0.00E+00  0.00E+00  0.00E+00  0.00E+00
   3   40.00  1.43E-02  1.02E-02  1.91E+00  0.00E+00  8.34E-04  0.00E+00  4.98E+02  0.00E+00  0.00E+00  0.00E+00  0.00E+00
   4   35.00  2.67E-02  3.07E-02  3.79E+00  0.00E+00  2.39E-03  0.00E+00  9.91E+02  0.00E+00  0.00E+00  0.00E+00  0.00E+00
   5   30.00  4.97E-02  7.75E-02  7.75E+00  0.00E+00  6.54E-03  0.00E+00  2.02E+03  0.00E+00  0.00E+00  0.00E+00  0.00E+00
   6   25.00  9.20E-02  1.52E-01  1.63E+01  0.00E+00  1.72E-02  0.00E+00  4.27E+03  0.00E+00  0.00E+00  0.00E+00  0.00E+00
   7   24.00  1.04E-01  1.68E-01  1.91E+01  0.00E+00  2.09E-02  0.00E+00  4.98E+03  0.00E+00  0.00E+00  0.00E+00  0.00E+00
   8   23.00  1.18E-01  1.83E-01  2.22E+01  0.00E+00  2.55E-02  0.00E+00  5.81E+03  0.00E+00  0.00E+00  0.00E+00  0.00E+00
   9   22.00  1.33E-01  1.97E-01  2.60E+01  0.00E+00  3.13E-02  0.00E+00  6.80E+03  0.00E+00  0.00E+00  0.00E+00  0.00E+00
  10   21.00  1.50E-01  2.09E-01  3.05E+01  0.00E+00  3.86E-02  0.00E+00  7.97E+03  0.00E+00  0.00E+00  0.00E+00  0.00E+00
  11   20.00  1.69E-01  2.19E-01  3.58E+01  0.00E+00  4.79E-02  0.00E+00  9.37E+03  0.00E+00  0.00E+00  0.00E+00  0.00E+00
  12   19.00  1.93E-01  2.29E-01  4.23E+01  0.00E+00  5.96E-02  0.00E+00  1.10E+04  0.00E+00  0.00E+00  0.00E+00  0.00E+00
  13   18.00  2.22E-01  2.35E-01  5.00E+01  0.00E+00  7.42E-02  0.00E+00  1.31E+04  0.00E+00  0.00E+00  0.00E+00  0.00E+00
  14   17.00  2.60E-01  2.40E-01  5.94E+01  0.00E+00  9.22E-02  0.00E+00  1.55E+04  0.00E+00  0.00E+00  0.00E+00  0.00E+00
  15   16.00  3.07E-01  2.42E-01  7.06E+01  0.00E+00  1.14E-01  0.00E+00  1.84E+04  0.00E+00  0.00E+00  0.00E+00  0.00E+00
  16   15.00  3.71E-01  2.45E-01  8.36E+01  0.00E+00  1.40E-01  0.00E+00  2.18E+04  0.00E+00  0.00E+00  0.00E+00  0.00E+00
  17   14.00  4.77E-01  2.47E-01  9.84E+01  0.00E+00  1.70E-01  0.00E+00  2.57E+04  0.00E+00  0.00E+00  0.00E+00  0.00E+00
  18   13.00  6.65E-01  2.49E-01  1.15E+02  0.00E+00  2.05E-01  0.00E+00  3.01E+04  0.00E+00  0.00E+00  0.00E+00  0.00E+00
  19   12.00  1.14E+00  2.51E-01  1.35E+02  0.00E+00  2.44E-01  0.00E+00  3.52E+04  0.00E+00  0.00E+00  0.00E+00  0.00E+00
  20   11.00  2.58E+00  2.53E-01  1.56E+02  0.00E+00  2.90E-01  0.00E+00  4.08E+04  0.00E+00  0.00E+00  0.00E+00  0.00E+00
  21   10.00  6.74E+00  2.55E-01  1.81E+02  0.00E+00  3.41E-01  0.00E+00  4.72E+04  0.00E+00  0.00E+00  0.00E+00  0.00E+00
  22    9.00  1.75E+01  2.56E-01  2.08E+02  0.00E+00  3.99E-01  0.00E+00  5.44E+04  0.00E+00  0.00E+00  0.00E+00  0.00E+00
  23    8.00  4.14E+01  2.58E-01  2.39E+02  0.00E+00  4.64E-01  0.00E+00  6.24E+04  0.00E+00  0.00E+00  0.00E+00  0.00E+00
  24    7.00  8.80E+01  2.60E-01  2.73E+02  0.00E+00  5.36E-01  0.00E+00  7.13E+04  0.00E+00  0.00E+00  0.00E+00  0.00E+00
  25    6.00  1.74E+02  2.62E-01  3.11E+02  0.00E+00  6.17E-01  0.00E+00  8.13E+04  0.00E+00  0.00E+00  0.00E+00  0.00E+00
  26    5.00  3.26E+02  2.64E-01  3.53E+02  0.00E+00  7.07E-01  0.00E+00  9.23E+04  0.00E+00  0.00E+00  0.00E+00  0.00E+00
  27    4.00  5.68E+02  2.66E-01  4.00E+02  0.00E+00  8.06E-01  0.00E+00  1.04E+05  0.00E+00  0.00E+00  0.00E+00  0.00E+00
  28    3.00  1.00E+03  2.69E-01  4.52E+02  0.00E+00  9.16E-01  0.00E+00  1.18E+05  0.00E+00  0.00E+00  0.00E+00  0.00E+00
  29    2.00  1.89E+03  2.71E-01  5.09E+02  0.00E+00  1.04E+00  0.00E+00  1.33E+05  0.00E+00  0.00E+00  0.00E+00  0.00E+00
  30    1.00  3.34E+03  2.73E-01  5.72E+02  0.00E+00  1.17E+00  0.00E+00  1.49E+05  0.00E+00  0.00E+00  0.00E+00  0.00E+00
  31    0.00  5.42E+03  2.76E-01  6.41E+02  0.00E+00  1.32E+00  0.00E+00  1.67E+05  0.00E+00  0.00E+00  0.00E+00  0.00E+00



1  J    Z      CFC-11    CFC-12    CFC-13    CFC-14    CFC-22    CFC-113   CFC-114   CFC-115   CLONO2     HNO4     CHCL2F 
                CCL4      N2O5  
      (KM)    (                                                   ATM CM                                                )

   1   50.00  8.54E-16  2.59E-10  6.27E-16  6.27E-16  5.18E-09  2.58E-12  6.29E-10  6.27E-16  4.99E-12  1.26E-11  6.27E-16
              1.13E-18  5.82E-15
   2   45.00  2.20E-14  1.13E-09  1.22E-15  1.22E-15  1.09E-08  1.45E-11  1.49E-09  1.22E-15  3.21E-10  2.31E-10  1.22E-15
              9.83E-17  6.64E-13
   3   40.00  8.08E-13  5.78E-09  2.38E-15  2.38E-15  2.52E-08  9.92E-11  3.80E-09  2.38E-15  1.75E-08  5.14E-09  2.38E-15
              1.29E-14  7.33E-11
   4   35.00  1.22E-10  3.66E-08  4.74E-15  4.74E-15  6.64E-08  9.75E-10  1.09E-08  4.74E-15  5.34E-07  1.43E-07  4.74E-15
              1.72E-11  7.71E-09
   5   30.00  7.31E-09  2.31E-07  9.69E-15  9.69E-15  1.94E-07  9.39E-09  3.41E-08  9.69E-15  4.64E-06  1.70E-06  9.69E-15
              2.71E-09  1.56E-07
   6   25.00  1.52E-07  1.19E-06  2.04E-14  2.04E-14  5.81E-07  6.52E-08  1.08E-07  2.04E-14  1.59E-05  7.60E-06  2.04E-14
              9.14E-08  8.75E-07
   7   24.00  2.56E-07  1.61E-06  2.38E-14  2.38E-14  7.22E-07  9.28E-08  1.36E-07  2.38E-14  1.90E-05  9.51E-06  2.38E-14
              1.64E-07  1.13E-06
   8   23.00  4.14E-07  2.17E-06  2.78E-14  2.78E-14  8.98E-07  1.30E-07  1.70E-07  2.78E-14  2.22E-05  1.16E-05  2.78E-14
              2.81E-07  1.41E-06
   9   22.00  6.55E-07  2.88E-06  3.25E-14  3.25E-14  1.11E-06  1.80E-07  2.13E-07  3.25E-14  2.53E-05  1.37E-05  3.25E-14
              4.71E-07  1.69E-06
  10   21.00  1.01E-06  3.80E-06  3.81E-14  3.81E-14  1.38E-06  2.46E-07  2.66E-07  3.81E-14  2.83E-05  1.58E-05  3.81E-14
              7.60E-07  1.95E-06
  11   20.00  1.51E-06  4.99E-06  4.48E-14  4.48E-14  1.72E-06  3.33E-07  3.33E-07  4.48E-14  3.08E-05  1.80E-05  4.48E-14
              1.18E-06  2.19E-06
  12   19.00  2.19E-06  6.51E-06  5.29E-14  5.29E-14  2.13E-06  4.46E-07  4.17E-07  5.29E-14  3.31E-05  2.00E-05  5.29E-14
              1.77E-06  2.40E-06
  13   18.00  3.13E-06  8.45E-06  6.25E-14  6.25E-14  2.65E-06  5.92E-07  5.20E-07  6.25E-14  3.51E-05  2.21E-05  6.25E-14
              2.60E-06  2.58E-06
  14   17.00  4.38E-06  1.09E-05  7.43E-14  7.43E-14  3.29E-06  7.81E-07  6.50E-07  7.43E-14  3.67E-05  2.40E-05  7.43E-14
              3.73E-06  2.72E-06
  15   16.00  6.03E-06  1.40E-05  8.82E-14  8.82E-14  4.08E-06  1.02E-06  8.08E-07  8.82E-14  3.76E-05  2.57E-05  8.82E-14
              5.23E-06  2.79E-06
  16   15.00  8.05E-06  1.77E-05  1.04E-13  1.04E-13  5.01E-06  1.30E-06  9.96E-07  1.04E-13  3.80E-05  2.71E-05  1.04E-13
              7.09E-06  2.82E-06
  17   14.00  1.05E-05  2.19E-05  1.23E-13  1.23E-13  6.09E-06  1.64E-06  1.21E-06  1.23E-13  3.83E-05  2.85E-05  1.23E-13
              9.31E-06  2.84E-06
  18   13.00  1.33E-05  2.69E-05  1.44E-13  1.44E-13  7.34E-06  2.03E-06  1.46E-06  1.44E-13  3.86E-05  2.98E-05  1.44E-13
              1.19E-05  2.85E-06
  19   12.00  1.66E-05  3.26E-05  1.68E-13  1.68E-13  8.76E-06  2.48E-06  1.75E-06  1.68E-13  3.87E-05  3.10E-05  1.68E-13
              1.50E-05  2.86E-06
  20   11.00  2.03E-05  3.91E-05  1.95E-13  1.95E-13  1.04E-05  2.99E-06  2.08E-06  1.95E-13  3.87E-05  3.22E-05  1.95E-13
              1.85E-05  2.86E-06
  21   10.00  2.46E-05  4.64E-05  2.26E-13  2.26E-13  1.22E-05  3.57E-06  2.44E-06  2.26E-13  3.87E-05  3.37E-05  2.26E-13
              2.24E-05  2.86E-06
  22    9.00  2.94E-05  5.46E-05  2.60E-13  2.60E-13  1.42E-05  4.22E-06  2.85E-06  2.60E-13  3.88E-05  3.53E-05  2.60E-13
              2.68E-05  2.86E-06
  23    8.00  3.47E-05  6.38E-05  2.99E-13  2.99E-13  1.65E-05  4.95E-06  3.31E-06  2.99E-13  3.88E-05  3.72E-05  2.99E-13
              3.18E-05  2.86E-06
  24    7.00  4.07E-05  7.41E-05  3.41E-13  3.41E-13  1.91E-05  5.76E-06  3.83E-06  3.41E-13  3.89E-05  3.92E-05  3.41E-13
              3.73E-05  2.86E-06
  25    6.00  4.74E-05  8.55E-05  3.89E-13  3.89E-13  2.19E-05  6.66E-06  4.40E-06  3.89E-13  3.90E-05  4.08E-05  3.89E-13
              4.34E-05  2.86E-06
  26    5.00  5.48E-05  9.81E-05  4.42E-13  4.42E-13  2.51E-05  7.67E-06  5.03E-06  4.42E-13  3.91E-05  4.20E-05  4.42E-13
              5.03E-05  2.86E-06
  27    4.00  6.29E-05  1.12E-04  5.00E-13  5.00E-13  2.86E-05  8.78E-06  5.73E-06  5.00E-13  3.93E-05  4.27E-05  5.00E-13
              5.79E-05  2.86E-06
  28    3.00  7.20E-05  1.28E-04  5.64E-13  5.64E-13  3.24E-05  1.00E-05  6.50E-06  5.64E-13  3.95E-05  4.32E-05  5.64E-13
              6.62E-05  2.86E-06
  29    2.00  8.20E-05  1.45E-04  6.36E-13  6.36E-13  3.67E-05  1.14E-05  7.36E-06  6.36E-13  3.98E-05  4.35E-05  6.36E-13
              7.55E-05  2.86E-06
  30    1.00  9.30E-05  1.64E-04  7.15E-13  7.15E-13  4.14E-05  1.29E-05  8.31E-06  7.15E-13  4.02E-05  4.37E-05  7.15E-13
              8.58E-05  2.86E-06
  31    0.00  1.05E-04  1.84E-04  8.01E-13  8.01E-13  4.66E-05  1.45E-05  9.35E-06  8.01E-13  4.07E-05  4.38E-05  8.01E-13
              9.70E-05  2.86E-06


0SUMMARY OF THE GEOMETRY CALCULATION

          H1      =     70.000 KM
          H2      =      0.000 KM
          ANGLE   =    180.000 DEG
          RANGE   =     70.000 KM
          BETA    =      0.000 DEG
          PHI     =      0.000 DEG
          HMIN    =      0.000 KM
          BENDING =      0.000 DEG
          LEN     =          0




1EQUIVALENT SEA LEVEL TOTAL ABSORBER AMOUNTS

                 HNO3      O3 UV       CNTMSLF1    CNTMSLF2   CNTMFRN
               (ATM CM)   (ATM CM)     (MOL CM-2)  (MOL CM-2)  (MOL CM-2)  (MOL CM-2)

             0.000E+00   2.761E-01   2.212E+21   1.159E+20   1.192E+23


              N2 CONT    MOL SCAT       AER 1       AER 2       AER 3       AER 4     CIRRUS      MEAN RH
                                                                                                  (PRCNT)

             3.665E+00   8.017E+00   0.000E+00   0.000E+00   0.000E+00   0.000E+00   0.000E+00        0.00


                 H2O        O3          CO2         CO          CH4         N2O          O2
               (                                        ATM CM                            )

             5.419E+03   2.761E-01   6.409E+02   0.000E+00   1.318E+00   0.000E+00   1.674E+05

                 NH3        NO          NO2         SO2
                 (               ATM CM               )

             0.000E+00   0.000E+00   0.000E+00   0.000E+00

             CFC-11      CFC-12      CFC-13      CFC-14      CFC-22      CFC-113     CFC-114
                 (                                      ATM CM                            )

             1.051E-04   1.844E-04   8.012E-13   8.012E-13   4.661E-05   1.450E-05   9.345E-06

             CFC-115     CLONO2       HNO4       CHCL2F       CCL4        N2O5  
                 (                                      ATM CM                            )

             8.012E-13   4.066E-05   4.383E-05   8.012E-13   9.703E-05   2.858E-06
  iv           -5
  iv            0
1                                             RADIANCE(WATTS/CM2-STER-XXX)
0  FREQ   WAVLEN    PATH THERMAL      SURFACE EMISSION    SURFACE REFLECTED     TOTAL RADIANCE   INTEGRAL    TOTAL
  (CM-1) (MICRN)    (CM-1)   (MICRN)    (CM-1)   (MICRN)    (CM-1)   (MICRN)    (CM-1)   (MICRN)    (CM-1)   TRANS

      2. 4999.998  9.85E-10  3.94E-13  2.08E-10  8.32E-14  0.00E+00  0.00E+00  1.19E-09  4.77E-13  1.19E-09  0.20899
      4. 2500.000  3.52E-09  5.64E-12  4.52E-10  7.24E-13  0.00E+00  0.00E+00  3.97E-09  6.36E-12  9.14E-09  0.12654
      6. 1666.666  8.19E-09  2.95E-11  3.13E-10  1.13E-12  0.00E+00  0.00E+00  8.50E-09  3.06E-11  2.61E-08  0.04901
      8. 1250.000  1.46E-08  9.34E-11  1.73E-10  1.11E-12  0.00E+00  0.00E+00  1.48E-08  9.45E-11  5.57E-08  0.01255
     10. 1000.000  2.22E-08  2.22E-10  5.50E-11  5.50E-13  0.00E+00  0.00E+00  2.23E-08  2.23E-10  1.00E-07  0.00324
     12.  833.333  3.05E-08  4.40E-10  5.25E-13  7.56E-15  0.00E+00  0.00E+00  3.05E-08  4.40E-10  1.61E-07  0.00002
     14.  714.286  4.00E-08  7.85E-10  5.39E-17  1.06E-18  0.00E+00  0.00E+00  4.00E-08  7.85E-10  2.41E-07  0.00000
     16.  625.000  5.09E-08  1.30E-09  1.68E-21  4.30E-23  0.00E+00  0.00E+00  5.09E-08  1.30E-09  3.43E-07  0.00000
     18.  555.555  6.14E-08  1.99E-09  8.61E-20  2.79E-21  0.00E+00  0.00E+00  6.14E-08  1.99E-09  4.66E-07  0.00000
     20.  500.000  7.65E-08  3.06E-09  8.61E-20  3.45E-21  0.00E+00  0.00E+00  7.65E-08  3.06E-09  6.19E-07  0.00000
     22.  454.545  9.54E-08  4.62E-09  2.95E-34  1.43E-35  0.00E+00  0.00E+00  9.54E-08  4.62E-09  8.10E-07  0.00000
     24.  416.667  1.09E-07  6.26E-09  2.90E-31  1.67E-32  0.00E+00  0.00E+00  1.09E-07  6.26E-09  1.03E-06  0.00000
     26.  384.615  1.26E-07  8.48E-09  2.90E-31  1.96E-32  0.00E+00  0.00E+00  1.26E-07  8.48E-09  1.28E-06  0.00000
     28.  357.143  1.50E-07  1.18E-08  2.64E-40  2.07E-41  0.00E+00  0.00E+00  1.50E-07  1.18E-08  1.58E-06  0.00000
     30.  333.333  1.70E-07  1.53E-08  1.51E-40  1.35E-41  0.00E+00  0.00E+00  1.70E-07  1.53E-08  1.92E-06  0.00000
     32.  312.500  1.85E-07  1.89E-08  0.00E+00  0.00E+00  0.00E+00  0.00E+00  1.85E-07  1.89E-08  2.29E-06  0.00000
     34.  294.118  2.06E-07  2.38E-08  0.00E+00  0.00E+00  0.00E+00  0.00E+00  2.06E-07  2.38E-08  2.70E-06  0.00000
     36.  277.778  2.21E-07  2.86E-08  0.00E+00  0.00E+00  0.00E+00  0.00E+00  2.21E-07  2.86E-08  3.14E-06  0.00000
     38.  263.158  2.35E-07  3.40E-08  0.00E+00  0.00E+00  0.00E+00  0.00E+00  2.35E-07  3.40E-08  3.61E-06  0.00000
     40.  250.000  2.64E-07  4.22E-08  0.00E+00  0.00E+00  0.00E+00  0.00E+00  2.64E-07  4.22E-08  4.14E-06  0.00000
     42.  238.095  3.04E-07  5.36E-08  0.00E+00  0.00E+00  0.00E+00  0.00E+00  3.04E-07  5.36E-08  4.75E-06  0.00000
     44.  227.273  3.40E-07  6.57E-08  0.00E+00  0.00E+00  0.00E+00  0.00E+00  3.40E-07  6.57E-08  5.43E-06  0.00000
     46.  217.391  3.61E-07  7.63E-08  0.00E+00  0.00E+00  0.00E+00  0.00E+00  3.61E-07  7.63E-08  6.15E-06  0.00000
     48.  208.333  3.86E-07  8.90E-08  0.00E+00  0.00E+00  0.00E+00  0.00E+00  3.86E-07  8.90E-08  6.92E-06  0.00000
     50.  200.000  4.27E-07  1.07E-07  0.00E+00  0.00E+00  0.00E+00  0.00E+00  4.27E-07  1.07E-07  7.77E-06  0.00000
     52.  192.308  4.49E-07  1.21E-07  0.00E+00  0.00E+00  0.00E+00  0.00E+00  4.49E-07  1.21E-07  8.67E-06  0.00000
     54.  185.185  4.57E-07  1.33E-07  0.00E+00  0.00E+00  0.00E+00  0.00E+00  4.57E-07  1.33E-07  9.59E-06  0.00000
     56.  178.571  4.71E-07  1.48E-07  0.00E+00  0.00E+00  0.00E+00  0.00E+00  4.71E-07  1.48E-07  1.05E-05  0.00000
     58.  172.414  5.12E-07  1.72E-07  0.00E+00  0.00E+00  0.00E+00  0.00E+00  5.12E-07  1.72E-07  1.16E-05  0.00000
     60.  166.667  5.60E-07  2.02E-07  0.00E+00  0.00E+00  0.00E+00  0.00E+00  5.60E-07  2.02E-07  1.27E-05  0.00000
     62.  161.290  5.95E-07  2.29E-07  0.00E+00  0.00E+00  0.00E+00  0.00E+00  5.95E-07  2.29E-07  1.39E-05  0.00000
     64.  156.250  6.32E-07  2.59E-07  0.00E+00  0.00E+00  0.00E+00  0.00E+00  6.32E-07  2.59E-07  1.51E-05  0.00000
     66.  151.515  6.86E-07  2.99E-07  0.00E+00  0.00E+00  0.00E+00  0.00E+00  6.86E-07  2.99E-07  1.65E-05  0.00000
     68.  147.059  7.11E-07  3.29E-07  0.00E+00  0.00E+00  0.00E+00  0.00E+00  7.11E-07  3.29E-07  1.79E-05  0.00000
     70.  142.857  7.44E-07  3.64E-07  0.00E+00  0.00E+00  0.00E+00  0.00E+00  7.44E-07  3.64E-07  1.94E-05  0.00000
     72.  138.889  7.56E-07  3.92E-07  0.00E+00  0.00E+00  0.00E+00  0.00E+00  7.56E-07  3.92E-07  2.09E-05  0.00000
     74.  135.135  7.81E-07  4.27E-07  0.00E+00  0.00E+00  0.00E+00  0.00E+00  7.81E-07  4.27E-07  2.25E-05  0.00000
     76.  131.579  8.36E-07  4.83E-07  0.00E+00  0.00E+00  0.00E+00  0.00E+00  8.36E-07  4.83E-07  2.42E-05  0.00000
     78.  128.205  8.76E-07  5.33E-07  0.00E+00  0.00E+00  0.00E+00  0.00E+00  8.76E-07  5.33E-07  2.59E-05  0.00000
     80.  125.000  9.05E-07  5.79E-07  0.00E+00  0.00E+00  0.00E+00  0.00E+00  9.05E-07  5.79E-07  2.77E-05  0.00000
     82.  121.951  9.62E-07  6.47E-07  0.00E+00  0.00E+00  0.00E+00  0.00E+00  9.62E-07  6.47E-07  2.96E-05  0.00000
     84.  119.048  1.04E-06  7.30E-07  0.00E+00  0.00E+00  0.00E+00  0.00E+00  1.04E-06  7.30E-07  3.17E-05  0.00000
     86.  116.279  1.06E-06  7.85E-07  0.00E+00  0.00E+00  0.00E+00  0.00E+00  1.06E-06  7.85E-07  3.38E-05  0.00000
     88.  113.636  1.05E-06  8.13E-07  0.00E+00  0.00E+00  0.00E+00  0.00E+00  1.05E-06  8.13E-07  3.59E-05  0.00000
     90.  111.111  1.10E-06  8.90E-07  0.00E+00  0.00E+00  0.00E+00  0.00E+00  1.10E-06  8.90E-07  3.81E-05  0.00000
     92.  108.696  1.14E-06  9.63E-07  0.00E+00  0.00E+00  0.00E+00  0.00E+00  1.14E-06  9.63E-07  4.04E-05  0.00000
     94.  106.383  1.19E-06  1.06E-06  0.00E+00  0.00E+00  0.00E+00  0.00E+00  1.19E-06  1.06E-06  4.28E-05  0.00000
     96.  104.167  1.26E-06  1.16E-06  0.00E+00  0.00E+00  0.00E+00  0.00E+00  1.26E-06  1.16E-06  4.53E-05  0.00000
     98.  102.041  1.28E-06  1.23E-06  0.00E+00  0.00E+00  0.00E+00  0.00E+00  1.28E-06  1.23E-06  4.79E-05  0.00000
    100.  100.000  1.28E-06  1.28E-06  0.00E+00  0.00E+00  0.00E+00  0.00E+00  1.28E-06  1.28E-06  5.04E-05  0.00000
  iv          105
1                                             RADIANCE(WATTS/CM2-STER-XXX)
0  FREQ   WAVLEN    PATH THERMAL      SURFACE EMISSION    SURFACE REFLECTED     TOTAL RADIANCE   INTEGRAL    TOTAL
  (CM-1) (MICRN)    (CM-1)   (MICRN)    (CM-1)   (MICRN)    (CM-1)   (MICRN)    (CM-1)   (MICRN)    (CM-1)   TRANS

    102.   98.039  1.35E-06  1.41E-06  0.00E+00  0.00E+00  0.00E+00  0.00E+00  1.35E-06  1.41E-06  5.31E-05  0.00000
    104.   96.154  1.40E-06  1.51E-06  0.00E+00  0.00E+00  0.00E+00  0.00E+00  1.40E-06  1.51E-06  5.59E-05  0.00000
    106.   94.340  1.43E-06  1.61E-06  0.00E+00  0.00E+00  0.00E+00  0.00E+00  1.43E-06  1.61E-06  5.88E-05  0.00000
    108.   92.593  1.54E-06  1.80E-06  0.00E+00  0.00E+00  0.00E+00  0.00E+00  1.54E-06  1.80E-06  6.19E-05  0.00000
    110.   90.909  1.59E-06  1.92E-06  0.00E+00  0.00E+00  0.00E+00  0.00E+00  1.59E-06  1.92E-06  6.50E-05  0.00000
    112.   89.286  1.64E-06  2.05E-06  0.00E+00  0.00E+00  0.00E+00  0.00E+00  1.64E-06  2.05E-06  6.83E-05  0.00000
    114.   87.719  1.76E-06  2.29E-06  0.00E+00  0.00E+00  0.00E+00  0.00E+00  1.76E-06  2.29E-06  7.18E-05  0.00000
    116.   86.207  1.80E-06  2.42E-06  0.00E+00  0.00E+00  0.00E+00  0.00E+00  1.80E-06  2.42E-06  7.54E-05  0.00000
    118.   84.746  1.79E-06  2.49E-06  0.00E+00  0.00E+00  0.00E+00  0.00E+00  1.79E-06  2.49E-06  7.90E-05  0.00000
    120.   83.333  1.76E-06  2.54E-06  0.00E+00  0.00E+00  0.00E+00  0.00E+00  1.76E-06  2.54E-06  8.25E-05  0.00000
    122.   81.967  1.79E-06  2.66E-06  0.00E+00  0.00E+00  0.00E+00  0.00E+00  1.79E-06  2.66E-06  8.61E-05  0.00000
    124.   80.645  1.90E-06  2.92E-06  0.00E+00  0.00E+00  0.00E+00  0.00E+00  1.90E-06  2.92E-06  8.99E-05  0.00000
    126.   79.365  1.90E-06  3.02E-06  0.00E+00  0.00E+00  0.00E+00  0.00E+00  1.90E-06  3.02E-06  9.37E-05  0.00000
    128.   78.125  1.97E-06  3.23E-06  0.00E+00  0.00E+00  0.00E+00  0.00E+00  1.97E-06  3.23E-06  9.77E-05  0.00000
    130.   76.923  2.07E-06  3.49E-06  0.00E+00  0.00E+00  0.00E+00  0.00E+00  2.07E-06  3.49E-06  1.02E-04  0.00000
    132.   75.758  2.02E-06  3.53E-06  0.00E+00  0.00E+00  0.00E+00  0.00E+00  2.02E-06  3.53E-06  1.06E-04  0.00000
    134.   74.627  2.12E-06  3.82E-06  0.00E+00  0.00E+00  0.00E+00  0.00E+00  2.12E-06  3.82E-06  1.10E-04  0.00000
    136.   73.529  2.26E-06  4.19E-06  0.00E+00  0.00E+00  0.00E+00  0.00E+00  2.26E-06  4.19E-06  1.15E-04  0.00000
    138.   72.464  2.22E-06  4.24E-06  0.00E+00  0.00E+00  0.00E+00  0.00E+00  2.22E-06  4.24E-06  1.19E-04  0.00000
    140.   71.429  2.20E-06  4.32E-06  0.00E+00  0.00E+00  0.00E+00  0.00E+00  2.20E-06  4.32E-06  1.23E-04  0.00000
    142.   70.423  2.38E-06  4.80E-06  0.00E+00  0.00E+00  0.00E+00  0.00E+00  2.38E-06  4.80E-06  1.28E-04  0.00000
    144.   69.444  2.53E-06  5.25E-06  0.00E+00  0.00E+00  0.00E+00  0.00E+00  2.53E-06  5.25E-06  1.33E-04  0.00000
    146.   68.493  2.56E-06  5.45E-06  0.00E+00  0.00E+00  0.00E+00  0.00E+00  2.56E-06  5.45E-06  1.38E-04  0.00000
    148.   67.568  2.46E-06  5.39E-06  0.00E+00  0.00E+00  0.00E+00  0.00E+00  2.46E-06  5.39E-06  1.43E-04  0.00000
    150.   66.667  2.36E-06  5.31E-06  0.00E+00  0.00E+00  0.00E+00  0.00E+00  2.36E-06  5.31E-06  1.48E-04  0.00000
    152.   65.789  2.44E-06  5.63E-06  0.00E+00  0.00E+00  0.00E+00  0.00E+00  2.44E-06  5.63E-06  1.53E-04  0.00000
    154.   64.935  2.59E-06  6.14E-06  0.00E+00  0.00E+00  0.00E+00  0.00E+00  2.59E-06  6.14E-06  1.58E-04  0.00000
    156.   64.103  2.68E-06  6.53E-06  0.00E+00  0.00E+00  0.00E+00  0.00E+00  2.68E-06  6.53E-06  1.63E-04  0.00000
    158.   63.291  2.72E-06  6.78E-06  0.00E+00  0.00E+00  0.00E+00  0.00E+00  2.72E-06  6.78E-06  1.69E-04  0.00000
    160.   62.500  2.88E-06  7.37E-06  0.00E+00  0.00E+00  0.00E+00  0.00E+00  2.88E-06  7.37E-06  1.75E-04  0.00000
    162.   61.728  3.00E-06  7.88E-06  0.00E+00  0.00E+00  0.00E+00  0.00E+00  3.00E-06  7.88E-06  1.81E-04  0.00000
    164.   60.976  3.07E-06  8.26E-06  0.00E+00  0.00E+00  0.00E+00  0.00E+00  3.07E-06  8.26E-06  1.87E-04  0.00000
    166.   60.241  3.01E-06  8.29E-06  0.00E+00  0.00E+00  0.00E+00  0.00E+00  3.01E-06  8.29E-06  1.93E-04  0.00000
    168.   59.524  2.97E-06  8.37E-06  0.00E+00  0.00E+00  0.00E+00  0.00E+00  2.97E-06  8.37E-06  1.99E-04  0.00000
    170.   58.824  2.91E-06  8.42E-06  0.00E+00  0.00E+00  0.00E+00  0.00E+00  2.91E-06  8.42E-06  2.05E-04  0.00000
    172.   58.140  2.99E-06  8.84E-06  0.00E+00  0.00E+00  0.00E+00  0.00E+00  2.99E-06  8.84E-06  2.11E-04  0.00000
    174.   57.471  3.08E-06  9.31E-06  0.00E+00  0.00E+00  0.00E+00  0.00E+00  3.08E-06  9.31E-06  2.17E-04  0.00000
    176.   56.818  3.10E-06  9.61E-06  0.00E+00  0.00E+00  0.00E+00  0.00E+00  3.10E-06  9.61E-06  2.23E-04  0.00000
    178.   56.180  3.15E-06  9.98E-06  0.00E+00  0.00E+00  0.00E+00  0.00E+00  3.15E-06  9.98E-06  2.29E-04  0.00000
    180.   55.556  3.32E-06  1.07E-05  0.00E+00  0.00E+00  0.00E+00  0.00E+00  3.32E-06  1.07E-05  2.36E-04  0.00000
    182.   54.945  3.41E-06  1.13E-05  0.00E+00  0.00E+00  0.00E+00  0.00E+00  3.41E-06  1.13E-05  2.43E-04  0.00000
    184.   54.348  3.58E-06  1.21E-05  0.00E+00  0.00E+00  0.00E+00  0.00E+00  3.58E-06  1.21E-05  2.50E-04  0.00000
    186.   53.763  3.62E-06  1.25E-05  0.00E+00  0.00E+00  0.00E+00  0.00E+00  3.62E-06  1.25E-05  2.57E-04  0.00000
    188.   53.191  3.51E-06  1.24E-05  0.00E+00  0.00E+00  0.00E+00  0.00E+00  3.51E-06  1.24E-05  2.64E-04  0.00000
    190.   52.632  3.70E-06  1.33E-05  0.00E+00  0.00E+00  0.00E+00  0.00E+00  3.70E-06  1.33E-05  2.72E-04  0.00000
    192.   52.083  3.78E-06  1.39E-05  0.00E+00  0.00E+00  0.00E+00  0.00E+00  3.78E-06  1.39E-05  2.79E-04  0.00000
    194.   51.546  3.72E-06  1.40E-05  0.00E+00  0.00E+00  0.00E+00  0.00E+00  3.72E-06  1.40E-05  2.87E-04  0.00000
    196.   51.020  3.80E-06  1.46E-05  0.00E+00  0.00E+00  0.00E+00  0.00E+00  3.80E-06  1.46E-05  2.94E-04  0.00000
    198.   50.505  3.88E-06  1.52E-05  0.00E+00  0.00E+00  0.00E+00  0.00E+00  3.88E-06  1.52E-05  3.02E-04  0.00000
    200.   50.000  3.81E-06  1.52E-05  0.00E+00  0.00E+00  0.00E+00  0.00E+00  3.81E-06  1.52E-05  3.09E-04  0.00000
  iv          205
1                                             RADIANCE(WATTS/CM2-STER-XXX)
0  FREQ   WAVLEN    PATH THERMAL      SURFACE EMISSION    SURFACE REFLECTED     TOTAL RADIANCE   INTEGRAL    TOTAL
  (CM-1) (MICRN)    (CM-1)   (MICRN)    (CM-1)   (MICRN)    (CM-1)   (MICRN)    (CM-1)   (MICRN)    (CM-1)   TRANS

    202.   49.505  3.58E-06  1.46E-05  0.00E+00  0.00E+00  0.00E+00  0.00E+00  3.58E-06  1.46E-05  3.17E-04  0.00000
    204.   49.020  3.75E-06  1.56E-05  0.00E+00  0.00E+00  0.00E+00  0.00E+00  3.75E-06  1.56E-05  3.24E-04  0.00000
    206.   48.544  3.93E-06  1.67E-05  0.00E+00  0.00E+00  0.00E+00  0.00E+00  3.93E-06  1.67E-05  3.32E-04  0.00000
    208.   48.077  3.83E-06  1.66E-05  0.00E+00  0.00E+00  0.00E+00  0.00E+00  3.83E-06  1.66E-05  3.40E-04  0.00000
    210.   47.619  4.02E-06  1.77E-05  0.00E+00  0.00E+00  0.00E+00  0.00E+00  4.02E-06  1.77E-05  3.48E-04  0.00000
    212.   47.170  4.17E-06  1.87E-05  0.00E+00  0.00E+00  0.00E+00  0.00E+00  4.17E-06  1.87E-05  3.56E-04  0.00000
    214.   46.729  4.12E-06  1.89E-05  0.00E+00  0.00E+00  0.00E+00  0.00E+00  4.12E-06  1.89E-05  3.64E-04  0.00000
    216.   46.296  4.36E-06  2.04E-05  0.00E+00  0.00E+00  0.00E+00  0.00E+00  4.36E-06  2.04E-05  3.73E-04  0.00000
    218.   45.872  4.56E-06  2.17E-05  0.00E+00  0.00E+00  0.00E+00  0.00E+00  4.56E-06  2.17E-05  3.82E-04  0.00000
    220.   45.455  4.41E-06  2.13E-05  0.00E+00  0.00E+00  0.00E+00  0.00E+00  4.41E-06  2.13E-05  3.91E-04  0.00000
    222.   45.045  4.19E-06  2.07E-05  0.00E+00  0.00E+00  0.00E+00  0.00E+00  4.19E-06  2.07E-05  3.99E-04  0.00000
    224.   44.643  4.26E-06  2.14E-05  0.00E+00  0.00E+00  0.00E+00  0.00E+00  4.26E-06  2.14E-05  4.08E-04  0.00000
    226.   44.248  4.16E-06  2.12E-05  0.00E+00  0.00E+00  0.00E+00  0.00E+00  4.16E-06  2.12E-05  4.16E-04  0.00000
    228.   43.860  4.21E-06  2.19E-05  0.00E+00  0.00E+00  0.00E+00  0.00E+00  4.21E-06  2.19E-05  4.25E-04  0.00000
    230.   43.478  4.57E-06  2.42E-05  0.00E+00  0.00E+00  0.00E+00  0.00E+00  4.57E-06  2.42E-05  4.34E-04  0.00000
    232.   43.103  4.75E-06  2.56E-05  0.00E+00  0.00E+00  0.00E+00  0.00E+00  4.75E-06  2.56E-05  4.43E-04  0.00000
    234.   42.735  4.95E-06  2.71E-05  0.00E+00  0.00E+00  0.00E+00  0.00E+00  4.95E-06  2.71E-05  4.53E-04  0.00000
    236.   42.373  5.12E-06  2.85E-05  0.00E+00  0.00E+00  0.00E+00  0.00E+00  5.12E-06  2.85E-05  4.63E-04  0.00000
    238.   42.017  5.20E-06  2.95E-05  0.00E+00  0.00E+00  0.00E+00  0.00E+00  5.20E-06  2.95E-05  4.74E-04  0.00000
    240.   41.667  5.24E-06  3.02E-05  0.00E+00  0.00E+00  0.00E+00  0.00E+00  5.24E-06  3.02E-05  4.84E-04  0.00000
    242.   41.322  5.19E-06  3.04E-05  0.00E+00  0.00E+00  0.00E+00  0.00E+00  5.19E-06  3.04E-05  4.95E-04  0.00000
    244.   40.984  4.86E-06  2.89E-05  0.00E+00  0.00E+00  0.00E+00  0.00E+00  4.86E-06  2.89E-05  5.04E-04  0.00000
    246.   40.650  4.58E-06  2.77E-05  0.00E+00  0.00E+00  0.00E+00  0.00E+00  4.58E-06  2.77E-05  5.14E-04  0.00000
    248.   40.323  4.70E-06  2.89E-05  0.00E+00  0.00E+00  0.00E+00  0.00E+00  4.70E-06  2.89E-05  5.23E-04  0.00000
    250.   40.000  5.04E-06  3.15E-05  0.00E+00  0.00E+00  0.00E+00  0.00E+00  5.04E-06  3.15E-05  5.33E-04  0.00000
    252.   39.683  4.95E-06  3.15E-05  0.00E+00  0.00E+00  0.00E+00  0.00E+00  4.95E-06  3.15E-05  5.43E-04  0.00000
    254.   39.370  4.79E-06  3.09E-05  0.00E+00  0.00E+00  0.00E+00  0.00E+00  4.79E-06  3.09E-05  5.53E-04  0.00000
    256.   39.062  5.19E-06  3.40E-05  0.00E+00  0.00E+00  0.00E+00  0.00E+00  5.19E-06  3.40E-05  5.63E-04  0.00000
    258.   38.760  5.57E-06  3.71E-05  0.00E+00  0.00E+00  0.00E+00  0.00E+00  5.57E-06  3.71E-05  5.74E-04  0.00000
    260.   38.462  5.76E-06  3.89E-05  0.00E+00  0.00E+00  0.00E+00  0.00E+00  5.76E-06  3.89E-05  5.86E-04  0.00000
    262.   38.168  5.79E-06  3.97E-05  0.00E+00  0.00E+00  0.00E+00  0.00E+00  5.79E-06  3.97E-05  5.97E-04  0.00000
    264.   37.879  5.70E-06  3.97E-05  0.00E+00  0.00E+00  0.00E+00  0.00E+00  5.70E-06  3.97E-05  6.09E-04  0.00000
    266.   37.594  5.51E-06  3.90E-05  0.00E+00  0.00E+00  0.00E+00  0.00E+00  5.51E-06  3.90E-05  6.20E-04  0.00000
    268.   37.313  5.75E-06  4.13E-05  0.00E+00  0.00E+00  0.00E+00  0.00E+00  5.75E-06  4.13E-05  6.31E-04  0.00000
    270.   37.037  6.02E-06  4.39E-05  0.00E+00  0.00E+00  0.00E+00  0.00E+00  6.02E-06  4.39E-05  6.43E-04  0.00000
    272.   36.765  6.02E-06  4.45E-05  0.00E+00  0.00E+00  0.00E+00  0.00E+00  6.02E-06  4.45E-05  6.55E-04  0.00000
    274.   36.496  5.88E-06  4.42E-05  0.00E+00  0.00E+00  0.00E+00  0.00E+00  5.88E-06  4.42E-05  6.67E-04  0.00000
    276.   36.232  5.49E-06  4.18E-05  0.00E+00  0.00E+00  0.00E+00  0.00E+00  5.49E-06  4.18E-05  6.78E-04  0.00000
    278.   35.971  5.19E-06  4.01E-05  0.00E+00  0.00E+00  0.00E+00  0.00E+00  5.19E-06  4.01E-05  6.88E-04  0.00000
    280.   35.714  5.24E-06  4.11E-05  0.00E+00  0.00E+00  0.00E+00  0.00E+00  5.24E-06  4.11E-05  6.99E-04  0.00000
    282.   35.461  5.41E-06  4.30E-05  0.00E+00  0.00E+00  0.00E+00  0.00E+00  5.41E-06  4.30E-05  7.10E-04  0.00000
    284.   35.211  5.89E-06  4.75E-05  0.00E+00  0.00E+00  0.00E+00  0.00E+00  5.89E-06  4.75E-05  7.21E-04  0.00000
    286.   34.965  6.20E-06  5.07E-05  0.00E+00  0.00E+00  0.00E+00  0.00E+00  6.20E-06  5.07E-05  7.34E-04  0.00000
    288.   34.722  5.94E-06  4.93E-05  0.00E+00  0.00E+00  0.00E+00  0.00E+00  5.94E-06  4.93E-05  7.46E-04  0.00000
    290.   34.483  5.83E-06  4.91E-05  0.00E+00  0.00E+00  0.00E+00  0.00E+00  5.83E-06  4.91E-05  7.57E-04  0.00000
    292.   34.247  6.35E-06  5.41E-05  0.00E+00  0.00E+00  0.00E+00  0.00E+00  6.35E-06  5.41E-05  7.70E-04  0.00000
    294.   34.014  6.63E-06  5.73E-05  0.00E+00  0.00E+00  0.00E+00  0.00E+00  6.63E-06  5.73E-05  7.83E-04  0.00000
    296.   33.784  6.60E-06  5.78E-05  0.00E+00  0.00E+00  0.00E+00  0.00E+00  6.60E-06  5.78E-05  7.96E-04  0.00000
    298.   33.557  6.46E-06  5.74E-05  0.00E+00  0.00E+00  0.00E+00  0.00E+00  6.46E-06  5.74E-05  8.09E-04  0.00000
    300.   33.333  6.26E-06  5.63E-05  0.00E+00  0.00E+00  0.00E+00  0.00E+00  6.26E-06  5.63E-05  8.22E-04  0.00000
  iv          305
1                                             RADIANCE(WATTS/CM2-STER-XXX)
0  FREQ   WAVLEN    PATH THERMAL      SURFACE EMISSION    SURFACE REFLECTED     TOTAL RADIANCE   INTEGRAL    TOTAL
  (CM-1) (MICRN)    (CM-1)   (MICRN)    (CM-1)   (MICRN)    (CM-1)   (MICRN)    (CM-1)   (MICRN)    (CM-1)   TRANS

    302.   33.113  5.78E-06  5.27E-05  0.00E+00  0.00E+00  0.00E+00  0.00E+00  5.78E-06  5.27E-05  8.33E-04  0.00000
    304.   32.895  5.97E-06  5.52E-05  0.00E+00  0.00E+00  0.00E+00  0.00E+00  5.97E-06  5.52E-05  8.45E-04  0.00000
    306.   32.680  6.63E-06  6.21E-05  0.00E+00  0.00E+00  0.00E+00  0.00E+00  6.63E-06  6.21E-05  8.59E-04  0.00000
    308.   32.468  6.87E-06  6.52E-05  0.00E+00  0.00E+00  0.00E+00  0.00E+00  6.87E-06  6.52E-05  8.72E-04  0.00000
    310.   32.258  6.98E-06  6.71E-05  0.00E+00  0.00E+00  0.00E+00  0.00E+00  6.98E-06  6.71E-05  8.86E-04  0.00000
    312.   32.051  7.05E-06  6.86E-05  0.00E+00  0.00E+00  0.00E+00  0.00E+00  7.05E-06  6.86E-05  9.00E-04  0.00000
    314.   31.847  6.74E-06  6.64E-05  0.00E+00  0.00E+00  0.00E+00  0.00E+00  6.74E-06  6.64E-05  9.14E-04  0.00000
    316.   31.646  6.76E-06  6.75E-05  0.00E+00  0.00E+00  0.00E+00  0.00E+00  6.76E-06  6.75E-05  9.27E-04  0.00000
    318.   31.447  7.22E-06  7.30E-05  0.00E+00  0.00E+00  0.00E+00  0.00E+00  7.22E-06  7.30E-05  9.42E-04  0.00000
    320.   31.250  7.20E-06  7.37E-05  0.00E+00  0.00E+00  0.00E+00  0.00E+00  7.20E-06  7.37E-05  9.56E-04  0.00000
    322.   31.056  6.74E-06  6.99E-05  0.00E+00  0.00E+00  0.00E+00  0.00E+00  6.74E-06  6.99E-05  9.70E-04  0.00000
    324.   30.864  6.36E-06  6.68E-05  0.00E+00  0.00E+00  0.00E+00  0.00E+00  6.36E-06  6.68E-05  9.82E-04  0.00000
    326.   30.675  6.56E-06  6.97E-05  0.00E+00  0.00E+00  0.00E+00  0.00E+00  6.56E-06  6.97E-05  9.96E-04  0.00000
    328.   30.488  6.49E-06  6.98E-05  0.00E+00  0.00E+00  0.00E+00  0.00E+00  6.49E-06  6.98E-05  1.01E-03  0.00000
    330.   30.303  7.10E-06  7.73E-05  0.00E+00  0.00E+00  0.00E+00  0.00E+00  7.10E-06  7.73E-05  1.02E-03  0.00000
    332.   30.120  7.43E-06  8.19E-05  0.00E+00  0.00E+00  0.00E+00  0.00E+00  7.43E-06  8.19E-05  1.04E-03  0.00000
    334.   29.940  6.94E-06  7.75E-05  0.00E+00  0.00E+00  0.00E+00  0.00E+00  6.94E-06  7.75E-05  1.05E-03  0.00000
    336.   29.762  6.87E-06  7.76E-05  0.00E+00  0.00E+00  0.00E+00  0.00E+00  6.87E-06  7.76E-05  1.07E-03  0.00000
    338.   29.586  7.51E-06  8.58E-05  0.00E+00  0.00E+00  0.00E+00  0.00E+00  7.51E-06  8.58E-05  1.08E-03  0.00000
    340.   29.412  7.32E-06  8.46E-05  0.00E+00  0.00E+00  0.00E+00  0.00E+00  7.32E-06  8.46E-05  1.09E-03  0.00000
    342.   29.240  7.24E-06  8.47E-05  0.00E+00  0.00E+00  0.00E+00  0.00E+00  7.24E-06  8.47E-05  1.11E-03  0.00000
    344.   29.070  7.54E-06  8.93E-05  0.00E+00  0.00E+00  0.00E+00  0.00E+00  7.54E-06  8.93E-05  1.12E-03  0.00000
    346.   28.902  7.69E-06  9.20E-05  0.00E+00  0.00E+00  0.00E+00  0.00E+00  7.69E-06  9.20E-05  1.14E-03  0.00000
    348.   28.736  7.46E-06  9.04E-05  0.00E+00  0.00E+00  0.00E+00  0.00E+00  7.46E-06  9.04E-05  1.15E-03  0.00000
    350.   28.571  6.93E-06  8.49E-05  0.00E+00  0.00E+00  0.00E+00  0.00E+00  6.93E-06  8.49E-05  1.17E-03  0.00000
    352.   28.409  6.84E-06  8.48E-05  0.00E+00  0.00E+00  0.00E+00  0.00E+00  6.84E-06  8.48E-05  1.18E-03  0.00000
    354.   28.249  6.94E-06  8.69E-05  0.00E+00  0.00E+00  0.00E+00  0.00E+00  6.94E-06  8.69E-05  1.20E-03  0.00000
    356.   28.090  7.02E-06  8.90E-05  0.00E+00  0.00E+00  0.00E+00  0.00E+00  7.02E-06  8.90E-05  1.21E-03  0.00000
    358.   27.933  7.30E-06  9.36E-05  0.00E+00  0.00E+00  0.00E+00  0.00E+00  7.30E-06  9.36E-05  1.22E-03  0.00000
    360.   27.778  8.07E-06  1.05E-04  0.00E+00  0.00E+00  0.00E+00  0.00E+00  8.07E-06  1.05E-04  1.24E-03  0.00000
    362.   27.624  8.40E-06  1.10E-04  0.00E+00  0.00E+00  0.00E+00  0.00E+00  8.40E-06  1.10E-04  1.26E-03  0.00000
    364.   27.473  8.54E-06  1.13E-04  0.00E+00  0.00E+00  0.00E+00  0.00E+00  8.54E-06  1.13E-04  1.27E-03  0.00000
    366.   27.322  8.64E-06  1.16E-04  0.00E+00  0.00E+00  0.00E+00  0.00E+00  8.64E-06  1.16E-04  1.29E-03  0.00000
    368.   27.174  8.20E-06  1.11E-04  0.00E+00  0.00E+00  0.00E+00  0.00E+00  8.20E-06  1.11E-04  1.31E-03  0.00000
    370.   27.027  7.78E-06  1.06E-04  0.00E+00  0.00E+00  0.00E+00  0.00E+00  7.78E-06  1.06E-04  1.32E-03  0.00000
    372.   26.882  8.10E-06  1.12E-04  0.00E+00  0.00E+00  0.00E+00  0.00E+00  8.10E-06  1.12E-04  1.34E-03  0.00000
    374.   26.738  7.55E-06  1.06E-04  0.00E+00  0.00E+00  0.00E+00  0.00E+00  7.55E-06  1.06E-04  1.36E-03  0.00000
    376.   26.596  7.53E-06  1.06E-04  0.00E+00  0.00E+00  0.00E+00  0.00E+00  7.53E-06  1.06E-04  1.37E-03  0.00000
    378.   26.455  8.37E-06  1.20E-04  0.00E+00  0.00E+00  0.00E+00  0.00E+00  8.37E-06  1.20E-04  1.39E-03  0.00000
    380.   26.316  8.80E-06  1.27E-04  2.80E-45  4.06E-44  0.00E+00  0.00E+00  8.80E-06  1.27E-04  1.40E-03  0.00000
    382.   26.178  8.72E-06  1.27E-04  2.80E-45  4.06E-44  0.00E+00  0.00E+00  8.72E-06  1.27E-04  1.42E-03  0.00000
    384.   26.042  7.93E-06  1.17E-04  0.00E+00  0.00E+00  0.00E+00  0.00E+00  7.93E-06  1.17E-04  1.44E-03  0.00000
    386.   25.907  7.97E-06  1.19E-04  2.16E-39  3.21E-38  0.00E+00  0.00E+00  7.97E-06  1.19E-04  1.45E-03  0.00000
    388.   25.773  8.97E-06  1.35E-04  1.65E-36  2.48E-35  0.00E+00  0.00E+00  8.97E-06  1.35E-04  1.47E-03  0.00000
    390.   25.641  9.27E-06  1.41E-04  2.85E-36  4.34E-35  0.00E+00  0.00E+00  9.27E-06  1.41E-04  1.49E-03  0.00000
    392.   25.510  9.06E-06  1.39E-04  7.42E-37  1.14E-35  0.00E+00  0.00E+00  9.06E-06  1.39E-04  1.51E-03  0.00000
    394.   25.381  8.30E-06  1.29E-04  1.65E-43  2.57E-42  0.00E+00  0.00E+00  8.30E-06  1.29E-04  1.53E-03  0.00000
    396.   25.253  7.62E-06  1.20E-04  0.00E+00  0.00E+00  0.00E+00  0.00E+00  7.62E-06  1.20E-04  1.54E-03  0.00000
    398.   25.126  7.47E-06  1.18E-04  0.00E+00  0.00E+00  0.00E+00  0.00E+00  7.47E-06  1.18E-04  1.56E-03  0.00000
    400.   25.000  8.12E-06  1.30E-04  1.98E-42  3.17E-41  0.00E+00  0.00E+00  8.12E-06  1.30E-04  1.57E-03  0.00000
  iv          405
1                                             RADIANCE(WATTS/CM2-STER-XXX)
0  FREQ   WAVLEN    PATH THERMAL      SURFACE EMISSION    SURFACE REFLECTED     TOTAL RADIANCE   INTEGRAL    TOTAL
  (CM-1) (MICRN)    (CM-1)   (MICRN)    (CM-1)   (MICRN)    (CM-1)   (MICRN)    (CM-1)   (MICRN)    (CM-1)   TRANS

    402.   24.876  9.22E-06  1.49E-04  1.44E-30  2.33E-29  0.00E+00  0.00E+00  9.22E-06  1.49E-04  1.59E-03  0.00000
    404.   24.752  9.64E-06  1.57E-04  1.01E-27  1.65E-26  0.00E+00  0.00E+00  9.64E-06  1.57E-04  1.61E-03  0.00000
    406.   24.631  9.77E-06  1.61E-04  6.66E-25  1.10E-23  0.00E+00  0.00E+00  9.77E-06  1.61E-04  1.63E-03  0.00000
    408.   24.510  9.96E-06  1.66E-04  3.19E-24  5.32E-23  0.00E+00  0.00E+00  9.96E-06  1.66E-04  1.65E-03  0.00000
    410.   24.390  1.00E-05  1.68E-04  4.38E-24  7.37E-23  0.00E+00  0.00E+00  1.00E-05  1.68E-04  1.67E-03  0.00000
    412.   24.272  1.00E-05  1.70E-04  2.40E-24  4.07E-23  0.00E+00  0.00E+00  1.00E-05  1.70E-04  1.69E-03  0.00000
    414.   24.155  9.76E-06  1.67E-04  1.97E-25  3.38E-24  0.00E+00  0.00E+00  9.76E-06  1.67E-04  1.71E-03  0.00000
    416.   24.038  9.06E-06  1.57E-04  1.10E-29  1.90E-28  0.00E+00  0.00E+00  9.06E-06  1.57E-04  1.73E-03  0.00000
    418.   23.923  7.87E-06  1.37E-04  0.00E+00  0.00E+00  0.00E+00  0.00E+00  7.87E-06  1.37E-04  1.74E-03  0.00000
    420.   23.810  7.93E-06  1.40E-04  0.00E+00  0.00E+00  0.00E+00  0.00E+00  7.93E-06  1.40E-04  1.76E-03  0.00000
    422.   23.697  8.75E-06  1.56E-04  6.02E-38  1.07E-36  0.00E+00  0.00E+00  8.75E-06  1.56E-04  1.78E-03  0.00000
    424.   23.585  8.96E-06  1.61E-04  4.51E-33  8.11E-32  0.00E+00  0.00E+00  8.96E-06  1.61E-04  1.79E-03  0.00000
    426.   23.474  9.34E-06  1.69E-04  4.54E-23  8.25E-22  0.00E+00  0.00E+00  9.34E-06  1.69E-04  1.81E-03  0.00000
    428.   23.364  1.00E-05  1.84E-04  3.78E-22  6.93E-21  0.00E+00  0.00E+00  1.00E-05  1.84E-04  1.83E-03  0.00000
    430.   23.256  9.79E-06  1.81E-04  7.70E-22  1.42E-20  0.00E+00  0.00E+00  9.79E-06  1.81E-04  1.85E-03  0.00000
    432.   23.148  9.74E-06  1.82E-04  2.19E-21  4.08E-20  0.00E+00  0.00E+00  9.74E-06  1.82E-04  1.87E-03  0.00000
    434.   23.041  9.98E-06  1.88E-04  1.73E-21  3.25E-20  0.00E+00  0.00E+00  9.98E-06  1.88E-04  1.89E-03  0.00000
    436.   22.936  9.73E-06  1.85E-04  2.06E-21  3.92E-20  0.00E+00  0.00E+00  9.73E-06  1.85E-04  1.91E-03  0.00000
    438.   22.831  1.03E-05  1.97E-04  3.83E-20  7.35E-19  0.00E+00  0.00E+00  1.03E-05  1.97E-04  1.93E-03  0.00000
    440.   22.727  1.00E-05  1.94E-04  3.50E-20  6.77E-19  0.00E+00  0.00E+00  1.00E-05  1.94E-04  1.95E-03  0.00000
    442.   22.624  8.91E-06  1.74E-04  3.41E-22  6.66E-21  0.00E+00  0.00E+00  8.91E-06  1.74E-04  1.97E-03  0.00000
    444.   22.523  9.33E-06  1.84E-04  5.86E-25  1.16E-23  0.00E+00  0.00E+00  9.33E-06  1.84E-04  1.99E-03  0.00000
    446.   22.422  9.85E-06  1.96E-04  9.35E-22  1.86E-20  0.00E+00  0.00E+00  9.85E-06  1.96E-04  2.01E-03  0.00000
    448.   22.321  1.03E-05  2.08E-04  3.23E-18  6.48E-17  0.00E+00  0.00E+00  1.03E-05  2.08E-04  2.03E-03  0.00000
    450.   22.222  1.06E-05  2.15E-04  3.32E-18  6.72E-17  0.00E+00  0.00E+00  1.06E-05  2.15E-04  2.05E-03  0.00000
    452.   22.124  9.94E-06  2.03E-04  5.58E-20  1.14E-18  0.00E+00  0.00E+00  9.94E-06  2.03E-04  2.07E-03  0.00000
    454.   22.026  9.89E-06  2.04E-04  9.45E-21  1.95E-19  0.00E+00  0.00E+00  9.89E-06  2.04E-04  2.09E-03  0.00000
    456.   21.930  9.25E-06  1.92E-04  9.23E-27  1.92E-25  0.00E+00  0.00E+00  9.25E-06  1.92E-04  2.11E-03  0.00000
    458.   21.834  8.63E-06  1.81E-04  1.81E-26  3.79E-25  0.00E+00  0.00E+00  8.63E-06  1.81E-04  2.12E-03  0.00000
    460.   21.739  9.80E-06  2.07E-04  8.70E-23  1.84E-21  0.00E+00  0.00E+00  9.80E-06  2.07E-04  2.14E-03  0.00000
    462.   21.645  1.06E-05  2.26E-04  2.03E-16  4.33E-15  0.00E+00  0.00E+00  1.06E-05  2.26E-04  2.17E-03  0.00000
    464.   21.552  1.11E-05  2.38E-04  2.55E-15  5.48E-14  0.00E+00  0.00E+00  1.11E-05  2.38E-04  2.19E-03  0.00000
    466.   21.459  1.08E-05  2.34E-04  2.23E-15  4.84E-14  0.00E+00  0.00E+00  1.08E-05  2.34E-04  2.21E-03  0.00000
    468.   21.368  1.02E-05  2.23E-04  3.14E-17  6.87E-16  0.00E+00  0.00E+00  1.02E-05  2.23E-04  2.23E-03  0.00000
    470.   21.277  1.00E-05  2.21E-04  9.22E-21  2.04E-19  0.00E+00  0.00E+00  1.00E-05  2.21E-04  2.25E-03  0.00000
    472.   21.186  8.98E-06  2.00E-04  9.99E-22  2.22E-20  0.00E+00  0.00E+00  8.98E-06  2.00E-04  2.27E-03  0.00000
    474.   21.097  9.62E-06  2.16E-04  3.36E-18  7.56E-17  0.00E+00  0.00E+00  9.62E-06  2.16E-04  2.29E-03  0.00000
    476.   21.008  1.09E-05  2.46E-04  4.00E-14  9.06E-13  0.00E+00  0.00E+00  1.09E-05  2.46E-04  2.31E-03  0.00000
    478.   20.921  1.14E-05  2.61E-04  2.53E-13  5.79E-12  0.00E+00  0.00E+00  1.14E-05  2.61E-04  2.33E-03  0.00000
    480.   20.833  1.13E-05  2.60E-04  2.14E-13  4.93E-12  0.00E+00  0.00E+00  1.13E-05  2.60E-04  2.35E-03  0.00000
    482.   20.747  1.04E-05  2.43E-04  2.35E-14  5.46E-13  0.00E+00  0.00E+00  1.04E-05  2.43E-04  2.37E-03  0.00000
    484.   20.661  9.73E-06  2.28E-04  8.28E-15  1.94E-13  0.00E+00  0.00E+00  9.73E-06  2.28E-04  2.39E-03  0.00000
    486.   20.576  1.06E-05  2.50E-04  2.47E-13  5.84E-12  0.00E+00  0.00E+00  1.06E-05  2.50E-04  2.42E-03  0.00000
    488.   20.492  1.15E-05  2.74E-04  1.39E-12  3.31E-11  0.00E+00  0.00E+00  1.15E-05  2.74E-04  2.44E-03  0.00000
    490.   20.408  1.13E-05  2.71E-04  1.00E-12  2.40E-11  0.00E+00  0.00E+00  1.13E-05  2.71E-04  2.46E-03  0.00000
    492.   20.325  1.04E-05  2.51E-04  5.84E-14  1.41E-12  0.00E+00  0.00E+00  1.04E-05  2.51E-04  2.48E-03  0.00000
    494.   20.243  1.11E-05  2.71E-04  4.73E-12  1.15E-10  0.00E+00  0.00E+00  1.11E-05  2.71E-04  2.50E-03  0.00000
    496.   20.161  1.20E-05  2.94E-04  2.96E-11  7.28E-10  0.00E+00  0.00E+00  1.20E-05  2.94E-04  2.53E-03  0.00000
    498.   20.080  1.20E-05  2.98E-04  3.13E-11  7.77E-10  0.00E+00  0.00E+00  1.20E-05  2.98E-04  2.55E-03  0.00000
    500.   20.000  1.12E-05  2.80E-04  6.23E-12  1.56E-10  0.00E+00  0.00E+00  1.12E-05  2.80E-04  2.57E-03  0.00000
  iv          505
1                                             RADIANCE(WATTS/CM2-STER-XXX)
0  FREQ   WAVLEN    PATH THERMAL      SURFACE EMISSION    SURFACE REFLECTED     TOTAL RADIANCE   INTEGRAL    TOTAL
  (CM-1) (MICRN)    (CM-1)   (MICRN)    (CM-1)   (MICRN)    (CM-1)   (MICRN)    (CM-1)   (MICRN)    (CM-1)   TRANS

    502.   19.920  9.99E-06  2.52E-04  2.01E-14  5.06E-13  0.00E+00  0.00E+00  9.99E-06  2.52E-04  2.59E-03  0.00000
    504.   19.841  1.04E-05  2.63E-04  4.13E-16  1.05E-14  0.00E+00  0.00E+00  1.04E-05  2.63E-04  2.62E-03  0.00000
    506.   19.763  1.02E-05  2.60E-04  4.21E-14  1.08E-12  0.00E+00  0.00E+00  1.02E-05  2.60E-04  2.64E-03  0.00000
    508.   19.685  1.06E-05  2.72E-04  3.64E-13  9.40E-12  0.00E+00  0.00E+00  1.06E-05  2.72E-04  2.66E-03  0.00000
    510.   19.608  1.12E-05  2.91E-04  6.55E-13  1.70E-11  0.00E+00  0.00E+00  1.12E-05  2.91E-04  2.68E-03  0.00000
    512.   19.531  1.14E-05  2.99E-04  1.04E-11  2.71E-10  0.00E+00  0.00E+00  1.14E-05  2.99E-04  2.70E-03  0.00000
    514.   19.455  1.14E-05  3.02E-04  1.01E-11  2.66E-10  0.00E+00  0.00E+00  1.14E-05  3.02E-04  2.72E-03  0.00000
    516.   19.380  1.02E-05  2.72E-04  1.87E-13  4.98E-12  0.00E+00  0.00E+00  1.02E-05  2.72E-04  2.74E-03  0.00000
    518.   19.305  9.57E-06  2.57E-04  1.10E-15  2.96E-14  0.00E+00  0.00E+00  9.57E-06  2.57E-04  2.76E-03  0.00000
    520.   19.231  1.03E-05  2.78E-04  1.29E-12  3.49E-11  0.00E+00  0.00E+00  1.03E-05  2.78E-04  2.78E-03  0.00000
    522.   19.157  1.16E-05  3.15E-04  7.02E-12  1.91E-10  0.00E+00  0.00E+00  1.16E-05  3.15E-04  2.81E-03  0.00000
    524.   19.084  1.11E-05  3.05E-04  4.54E-12  1.25E-10  0.00E+00  0.00E+00  1.11E-05  3.05E-04  2.83E-03  0.00000
    526.   19.011  1.03E-05  2.86E-04  5.25E-12  1.45E-10  0.00E+00  0.00E+00  1.03E-05  2.86E-04  2.85E-03  0.00000
    528.   18.939  1.16E-05  3.24E-04  2.31E-10  6.45E-09  0.00E+00  0.00E+00  1.16E-05  3.24E-04  2.87E-03  0.00002
    530.   18.868  1.24E-05  3.49E-04  1.74E-09  4.87E-08  0.00E+00  0.00E+00  1.24E-05  3.49E-04  2.90E-03  0.00012
    532.   18.797  1.25E-05  3.53E-04  2.44E-09  6.90E-08  0.00E+00  0.00E+00  1.25E-05  3.53E-04  2.92E-03  0.00016
    534.   18.727  1.19E-05  3.40E-04  8.02E-10  2.29E-08  0.00E+00  0.00E+00  1.19E-05  3.40E-04  2.95E-03  0.00005
    536.   18.657  1.13E-05  3.23E-04  2.50E-10  7.18E-09  0.00E+00  0.00E+00  1.13E-05  3.23E-04  2.97E-03  0.00002
    538.   18.587  1.20E-05  3.46E-04  1.79E-09  5.19E-08  0.00E+00  0.00E+00  1.20E-05  3.46E-04  2.99E-03  0.00012
    540.   18.519  1.21E-05  3.52E-04  1.89E-09  5.51E-08  0.00E+00  0.00E+00  1.21E-05  3.52E-04  3.02E-03  0.00013
    542.   18.450  1.19E-05  3.51E-04  7.92E-10  2.33E-08  0.00E+00  0.00E+00  1.19E-05  3.51E-04  3.04E-03  0.00005
    544.   18.382  1.12E-05  3.32E-04  5.32E-10  1.57E-08  0.00E+00  0.00E+00  1.12E-05  3.32E-04  3.06E-03  0.00004
    546.   18.315  1.02E-05  3.03E-04  6.01E-12  1.79E-10  0.00E+00  0.00E+00  1.02E-05  3.03E-04  3.08E-03  0.00000
    548.   18.248  1.09E-05  3.27E-04  4.17E-11  1.25E-09  0.00E+00  0.00E+00  1.09E-05  3.27E-04  3.11E-03  0.00000
    550.   18.182  1.13E-05  3.43E-04  3.28E-10  9.93E-09  0.00E+00  0.00E+00  1.13E-05  3.43E-04  3.13E-03  0.00002
    552.   18.116  1.20E-05  3.66E-04  2.34E-09  7.14E-08  0.00E+00  0.00E+00  1.20E-05  3.66E-04  3.15E-03  0.00016
    554.   18.051  1.19E-05  3.64E-04  2.34E-09  7.17E-08  0.00E+00  0.00E+00  1.19E-05  3.64E-04  3.18E-03  0.00015
    556.   17.986  1.19E-05  3.67E-04  2.91E-09  8.99E-08  0.00E+00  0.00E+00  1.19E-05  3.67E-04  3.20E-03  0.00019
    558.   17.921  1.25E-05  3.88E-04  9.61E-09  2.99E-07  0.00E+00  0.00E+00  1.25E-05  3.89E-04  3.23E-03  0.00064
    560.   17.857  1.27E-05  3.98E-04  1.78E-08  5.58E-07  0.00E+00  0.00E+00  1.27E-05  3.99E-04  3.25E-03  0.00118
    562.   17.794  1.22E-05  3.84E-04  1.20E-08  3.80E-07  0.00E+00  0.00E+00  1.22E-05  3.85E-04  3.28E-03  0.00080
    564.   17.730  1.19E-05  3.77E-04  3.05E-09  9.71E-08  0.00E+00  0.00E+00  1.19E-05  3.78E-04  3.30E-03  0.00020
    566.   17.668  1.14E-05  3.67E-04  1.34E-09  4.28E-08  0.00E+00  0.00E+00  1.14E-05  3.67E-04  3.32E-03  0.00009
    568.   17.606  1.03E-05  3.34E-04  3.76E-11  1.21E-09  0.00E+00  0.00E+00  1.03E-05  3.34E-04  3.34E-03  0.00000
    570.   17.544  1.07E-05  3.47E-04  3.59E-11  1.17E-09  0.00E+00  0.00E+00  1.07E-05  3.47E-04  3.36E-03  0.00000
    572.   17.483  1.18E-05  3.86E-04  2.65E-09  8.68E-08  0.00E+00  0.00E+00  1.18E-05  3.86E-04  3.39E-03  0.00018
    574.   17.422  1.18E-05  3.88E-04  4.30E-09  1.42E-07  0.00E+00  0.00E+00  1.18E-05  3.88E-04  3.41E-03  0.00028
    576.   17.361  1.07E-05  3.56E-04  9.81E-10  3.25E-08  0.00E+00  0.00E+00  1.07E-05  3.56E-04  3.43E-03  0.00006
    578.   17.301  1.11E-05  3.70E-04  9.19E-10  3.07E-08  0.00E+00  0.00E+00  1.11E-05  3.70E-04  3.45E-03  0.00006
    580.   17.241  1.07E-05  3.58E-04  6.71E-10  2.26E-08  0.00E+00  0.00E+00  1.07E-05  3.58E-04  3.48E-03  0.00004
    582.   17.182  1.04E-05  3.52E-04  4.78E-10  1.62E-08  0.00E+00  0.00E+00  1.04E-05  3.52E-04  3.50E-03  0.00003
    584.   17.123  1.05E-05  3.59E-04  8.05E-10  2.74E-08  0.00E+00  0.00E+00  1.05E-05  3.60E-04  3.52E-03  0.00005
    586.   17.065  1.03E-05  3.54E-04  3.87E-09  1.33E-07  0.00E+00  0.00E+00  1.03E-05  3.54E-04  3.54E-03  0.00026
    588.   17.007  1.04E-05  3.59E-04  7.94E-09  2.75E-07  0.00E+00  0.00E+00  1.04E-05  3.59E-04  3.56E-03  0.00052
    590.   16.949  9.61E-06  3.34E-04  2.65E-09  9.22E-08  0.00E+00  0.00E+00  9.61E-06  3.35E-04  3.58E-03  0.00017
    592.   16.892  8.93E-06  3.13E-04  3.05E-11  1.07E-09  0.00E+00  0.00E+00  8.93E-06  3.13E-04  3.60E-03  0.00000
    594.   16.835  8.59E-06  3.03E-04  2.17E-11  7.66E-10  0.00E+00  0.00E+00  8.59E-06  3.03E-04  3.61E-03  0.00000
    596.   16.779  7.94E-06  2.82E-04  1.45E-10  5.17E-09  0.00E+00  0.00E+00  7.94E-06  2.82E-04  3.63E-03  0.00001
    598.   16.722  8.24E-06  2.95E-04  6.23E-10  2.23E-08  0.00E+00  0.00E+00  8.24E-06  2.95E-04  3.65E-03  0.00004
    600.   16.667  8.89E-06  3.20E-04  7.17E-10  2.58E-08  0.00E+00  0.00E+00  8.89E-06  3.20E-04  3.66E-03  0.00005
  iv          605
1                                             RADIANCE(WATTS/CM2-STER-XXX)
0  FREQ   WAVLEN    PATH THERMAL      SURFACE EMISSION    SURFACE REFLECTED     TOTAL RADIANCE   INTEGRAL    TOTAL
  (CM-1) (MICRN)    (CM-1)   (MICRN)    (CM-1)   (MICRN)    (CM-1)   (MICRN)    (CM-1)   (MICRN)    (CM-1)   TRANS

    602.   16.611  8.48E-06  3.07E-04  1.28E-09  4.65E-08  0.00E+00  0.00E+00  8.48E-06  3.07E-04  3.68E-03  0.00008
    604.   16.556  8.10E-06  2.95E-04  1.03E-09  3.77E-08  0.00E+00  0.00E+00  8.10E-06  2.95E-04  3.70E-03  0.00007
    606.   16.502  7.82E-06  2.87E-04  1.24E-09  4.55E-08  0.00E+00  0.00E+00  7.82E-06  2.87E-04  3.71E-03  0.00008
    608.   16.447  7.71E-06  2.85E-04  1.69E-09  6.24E-08  0.00E+00  0.00E+00  7.71E-06  2.85E-04  3.73E-03  0.00011
    610.   16.393  8.01E-06  2.98E-04  2.09E-09  7.77E-08  0.00E+00  0.00E+00  8.02E-06  2.98E-04  3.74E-03  0.00014
    612.   16.340  8.04E-06  3.01E-04  1.68E-09  6.29E-08  0.00E+00  0.00E+00  8.04E-06  3.01E-04  3.76E-03  0.00011
    614.   16.287  7.33E-06  2.76E-04  3.66E-10  1.38E-08  0.00E+00  0.00E+00  7.33E-06  2.76E-04  3.77E-03  0.00002
    616.   16.234  6.25E-06  2.37E-04  5.53E-11  2.10E-09  0.00E+00  0.00E+00  6.25E-06  2.37E-04  3.79E-03  0.00000
    618.   16.181  6.07E-06  2.32E-04  4.50E-12  1.72E-10  0.00E+00  0.00E+00  6.07E-06  2.32E-04  3.80E-03  0.00000
    620.   16.129  6.93E-06  2.67E-04  4.27E-11  1.64E-09  0.00E+00  0.00E+00  6.93E-06  2.67E-04  3.81E-03  0.00000
    622.   16.077  6.86E-06  2.65E-04  2.05E-10  7.94E-09  0.00E+00  0.00E+00  6.86E-06  2.65E-04  3.83E-03  0.00001
    624.   16.026  6.35E-06  2.47E-04  1.45E-10  5.65E-09  0.00E+00  0.00E+00  6.35E-06  2.47E-04  3.84E-03  0.00001
    626.   15.974  5.93E-06  2.32E-04  9.19E-13  3.60E-11  0.00E+00  0.00E+00  5.93E-06  2.32E-04  3.85E-03  0.00000
    628.   15.924  5.58E-06  2.20E-04  1.89E-12  7.47E-11  0.00E+00  0.00E+00  5.58E-06  2.20E-04  3.86E-03  0.00000
    630.   15.873  5.35E-06  2.12E-04  1.48E-12  5.86E-11  0.00E+00  0.00E+00  5.35E-06  2.12E-04  3.87E-03  0.00000
    632.   15.823  5.16E-06  2.06E-04  8.03E-14  3.21E-12  0.00E+00  0.00E+00  5.16E-06  2.06E-04  3.88E-03  0.00000
    634.   15.773  5.00E-06  2.01E-04  8.08E-15  3.25E-13  0.00E+00  0.00E+00  5.00E-06  2.01E-04  3.89E-03  0.00000
    636.   15.723  4.85E-06  1.96E-04  1.55E-17  6.27E-16  0.00E+00  0.00E+00  4.85E-06  1.96E-04  3.90E-03  0.00000
    638.   15.674  4.76E-06  1.94E-04  1.12E-19  4.57E-18  0.00E+00  0.00E+00  4.76E-06  1.94E-04  3.91E-03  0.00000
    640.   15.625  4.73E-06  1.94E-04  4.79E-21  1.96E-19  0.00E+00  0.00E+00  4.73E-06  1.94E-04  3.92E-03  0.00000
    642.   15.576  4.75E-06  1.96E-04  6.74E-22  2.78E-20  0.00E+00  0.00E+00  4.75E-06  1.96E-04  3.93E-03  0.00000
    644.   15.528  4.83E-06  2.00E-04  6.53E-25  2.71E-23  0.00E+00  0.00E+00  4.83E-06  2.00E-04  3.94E-03  0.00000
    646.   15.480  4.98E-06  2.08E-04  2.29E-27  9.58E-26  0.00E+00  0.00E+00  4.98E-06  2.08E-04  3.95E-03  0.00000
    648.   15.432  5.49E-06  2.31E-04  1.19E-28  5.00E-27  0.00E+00  0.00E+00  5.49E-06  2.31E-04  3.96E-03  0.00000
    650.   15.385  5.57E-06  2.35E-04  2.81E-33  1.19E-31  0.00E+00  0.00E+00  5.57E-06  2.35E-04  3.97E-03  0.00000
    652.   15.337  5.20E-06  2.21E-04  8.69E-33  3.70E-31  0.00E+00  0.00E+00  5.20E-06  2.21E-04  3.98E-03  0.00000
    654.   15.291  5.06E-06  2.16E-04  2.13E-27  9.09E-26  0.00E+00  0.00E+00  5.06E-06  2.16E-04  3.99E-03  0.00000
    656.   15.244  5.05E-06  2.17E-04  2.13E-27  9.15E-26  0.00E+00  0.00E+00  5.05E-06  2.17E-04  4.00E-03  0.00000
    658.   15.198  5.14E-06  2.23E-04  1.81E-32  7.83E-31  0.00E+00  0.00E+00  5.14E-06  2.23E-04  4.01E-03  0.00000
    660.   15.152  5.12E-06  2.23E-04  2.09E-32  9.09E-31  0.00E+00  0.00E+00  5.12E-06  2.23E-04  4.02E-03  0.00000
    662.   15.106  5.43E-06  2.38E-04  2.01E-32  8.80E-31  0.00E+00  0.00E+00  5.43E-06  2.38E-04  4.04E-03  0.00000
    664.   15.060  5.47E-06  2.41E-04  0.00E+00  0.00E+00  0.00E+00  0.00E+00  5.47E-06  2.41E-04  4.05E-03  0.00000
    666.   15.015  6.10E-06  2.71E-04  0.00E+00  0.00E+00  0.00E+00  0.00E+00  6.10E-06  2.71E-04  4.06E-03  0.00000
    668.   14.970  7.33E-06  3.27E-04  0.00E+00  0.00E+00  0.00E+00  0.00E+00  7.33E-06  3.27E-04  4.07E-03  0.00000
    670.   14.925  6.33E-06  2.84E-04  0.00E+00  0.00E+00  0.00E+00  0.00E+00  6.33E-06  2.84E-04  4.09E-03  0.00000
    672.   14.881  5.30E-06  2.39E-04  7.16E-38  3.24E-36  0.00E+00  0.00E+00  5.30E-06  2.39E-04  4.10E-03  0.00000
    674.   14.837  5.11E-06  2.32E-04  4.58E-32  2.08E-30  0.00E+00  0.00E+00  5.11E-06  2.32E-04  4.11E-03  0.00000
    676.   14.793  5.01E-06  2.29E-04  1.38E-31  6.28E-30  0.00E+00  0.00E+00  5.01E-06  2.29E-04  4.12E-03  0.00000
    678.   14.749  5.11E-06  2.35E-04  4.58E-32  2.11E-30  0.00E+00  0.00E+00  5.11E-06  2.35E-04  4.13E-03  0.00000
    680.   14.706  5.08E-06  2.35E-04  6.58E-38  3.04E-36  0.00E+00  0.00E+00  5.08E-06  2.35E-04  4.14E-03  0.00000
    682.   14.663  4.99E-06  2.32E-04  3.74E-30  1.74E-28  0.00E+00  0.00E+00  4.99E-06  2.32E-04  4.15E-03  0.00000
    684.   14.620  4.76E-06  2.23E-04  1.25E-29  5.84E-28  0.00E+00  0.00E+00  4.76E-06  2.23E-04  4.16E-03  0.00000
    686.   14.577  4.70E-06  2.21E-04  7.52E-30  3.54E-28  0.00E+00  0.00E+00  4.70E-06  2.21E-04  4.17E-03  0.00000
    688.   14.535  4.67E-06  2.21E-04  1.36E-30  6.45E-29  0.00E+00  0.00E+00  4.67E-06  2.21E-04  4.18E-03  0.00000
    690.   14.493  4.56E-06  2.17E-04  2.87E-22  1.37E-20  0.00E+00  0.00E+00  4.56E-06  2.17E-04  4.18E-03  0.00000
    692.   14.451  4.28E-06  2.05E-04  9.89E-22  4.73E-20  0.00E+00  0.00E+00  4.28E-06  2.05E-04  4.19E-03  0.00000
    694.   14.409  4.25E-06  2.05E-04  7.41E-22  3.57E-20  0.00E+00  0.00E+00  4.25E-06  2.05E-04  4.20E-03  0.00000
    696.   14.368  4.20E-06  2.04E-04  1.52E-20  7.35E-19  0.00E+00  0.00E+00  4.20E-06  2.04E-04  4.21E-03  0.00000
    698.   14.327  4.26E-06  2.07E-04  1.43E-15  6.97E-14  0.00E+00  0.00E+00  4.26E-06  2.07E-04  4.22E-03  0.00000
    700.   14.286  4.31E-06  2.11E-04  4.38E-15  2.15E-13  0.00E+00  0.00E+00  4.31E-06  2.11E-04  4.23E-03  0.00000
  iv          705
1                                             RADIANCE(WATTS/CM2-STER-XXX)
0  FREQ   WAVLEN    PATH THERMAL      SURFACE EMISSION    SURFACE REFLECTED     TOTAL RADIANCE   INTEGRAL    TOTAL
  (CM-1) (MICRN)    (CM-1)   (MICRN)    (CM-1)   (MICRN)    (CM-1)   (MICRN)    (CM-1)   (MICRN)    (CM-1)   TRANS

    702.   14.245  4.38E-06  2.16E-04  1.76E-15  8.68E-14  0.00E+00  0.00E+00  4.38E-06  2.16E-04  4.24E-03  0.00000
    704.   14.205  4.65E-06  2.31E-04  4.89E-15  2.42E-13  0.00E+00  0.00E+00  4.65E-06  2.31E-04  4.25E-03  0.00000
    706.   14.164  4.97E-06  2.48E-04  2.97E-13  1.48E-11  0.00E+00  0.00E+00  4.97E-06  2.48E-04  4.26E-03  0.00000
    708.   14.124  5.16E-06  2.59E-04  2.35E-11  1.18E-09  0.00E+00  0.00E+00  5.16E-06  2.59E-04  4.27E-03  0.00000
    710.   14.085  5.33E-06  2.69E-04  1.93E-10  9.73E-09  0.00E+00  0.00E+00  5.33E-06  2.69E-04  4.28E-03  0.00001
    712.   14.045  5.64E-06  2.86E-04  4.14E-10  2.10E-08  0.00E+00  0.00E+00  5.65E-06  2.86E-04  4.29E-03  0.00003
    714.   14.006  5.95E-06  3.03E-04  8.56E-10  4.37E-08  0.00E+00  0.00E+00  5.95E-06  3.03E-04  4.30E-03  0.00006
    716.   13.966  6.04E-06  3.10E-04  1.89E-09  9.71E-08  0.00E+00  0.00E+00  6.04E-06  3.10E-04  4.31E-03  0.00013
    718.   13.928  5.35E-06  2.76E-04  8.90E-10  4.59E-08  0.00E+00  0.00E+00  5.35E-06  2.76E-04  4.32E-03  0.00006
    720.   13.889  4.77E-06  2.47E-04  1.82E-11  9.42E-10  0.00E+00  0.00E+00  4.77E-06  2.47E-04  4.33E-03  0.00000
    722.   13.850  6.01E-06  3.13E-04  1.09E-08  5.68E-07  0.00E+00  0.00E+00  6.02E-06  3.14E-04  4.34E-03  0.00076
    724.   13.812  7.13E-06  3.74E-04  5.14E-08  2.69E-06  0.00E+00  0.00E+00  7.18E-06  3.76E-04  4.36E-03  0.00359
    726.   13.774  7.62E-06  4.01E-04  1.02E-07  5.38E-06  0.00E+00  0.00E+00  7.72E-06  4.07E-04  4.37E-03  0.00714
    728.   13.736  7.33E-06  3.88E-04  5.59E-08  2.96E-06  0.00E+00  0.00E+00  7.38E-06  3.91E-04  4.39E-03  0.00391
    730.   13.699  6.78E-06  3.61E-04  1.61E-08  8.60E-07  0.00E+00  0.00E+00  6.80E-06  3.62E-04  4.40E-03  0.00113
    732.   13.661  6.74E-06  3.61E-04  2.46E-08  1.32E-06  0.00E+00  0.00E+00  6.77E-06  3.63E-04  4.42E-03  0.00173
    734.   13.624  6.88E-06  3.71E-04  3.57E-08  1.92E-06  0.00E+00  0.00E+00  6.91E-06  3.72E-04  4.43E-03  0.00251
    736.   13.587  6.90E-06  3.74E-04  3.81E-08  2.07E-06  0.00E+00  0.00E+00  6.94E-06  3.76E-04  4.44E-03  0.00269
    738.   13.550  6.83E-06  3.72E-04  2.74E-08  1.49E-06  0.00E+00  0.00E+00  6.85E-06  3.73E-04  4.46E-03  0.00193
    740.   13.514  6.39E-06  3.50E-04  9.05E-09  4.95E-07  0.00E+00  0.00E+00  6.39E-06  3.50E-04  4.47E-03  0.00064
    742.   13.477  6.62E-06  3.64E-04  3.80E-08  2.09E-06  0.00E+00  0.00E+00  6.65E-06  3.66E-04  4.48E-03  0.00270
    744.   13.441  7.86E-06  4.35E-04  1.10E-07  6.06E-06  0.00E+00  0.00E+00  7.97E-06  4.41E-04  4.50E-03  0.00779
    746.   13.405  8.33E-06  4.64E-04  2.35E-07  1.31E-05  0.00E+00  0.00E+00  8.57E-06  4.77E-04  4.52E-03  0.01675
    748.   13.369  8.54E-06  4.78E-04  2.96E-07  1.66E-05  0.00E+00  0.00E+00  8.83E-06  4.94E-04  4.53E-03  0.02114
    750.   13.333  8.72E-06  4.90E-04  3.92E-07  2.20E-05  0.00E+00  0.00E+00  9.11E-06  5.12E-04  4.55E-03  0.02800
    752.   13.298  8.95E-06  5.06E-04  4.19E-07  2.37E-05  0.00E+00  0.00E+00  9.37E-06  5.30E-04  4.57E-03  0.02999
    754.   13.263  9.09E-06  5.17E-04  2.95E-07  1.68E-05  0.00E+00  0.00E+00  9.39E-06  5.34E-04  4.59E-03  0.02117
    756.   13.228  9.14E-06  5.22E-04  4.87E-07  2.78E-05  0.00E+00  0.00E+00  9.62E-06  5.50E-04  4.61E-03  0.03503
    758.   13.193  9.24E-06  5.31E-04  1.18E-06  6.79E-05  0.00E+00  0.00E+00  1.04E-05  5.99E-04  4.63E-03  0.08506
    760.   13.158  9.49E-06  5.48E-04  1.59E-06  9.16E-05  0.00E+00  0.00E+00  1.11E-05  6.40E-04  4.65E-03  0.11446
    762.   13.123  9.47E-06  5.50E-04  1.94E-06  1.13E-04  0.00E+00  0.00E+00  1.14E-05  6.63E-04  4.67E-03  0.14045
    764.   13.089  9.33E-06  5.44E-04  2.37E-06  1.38E-04  0.00E+00  0.00E+00  1.17E-05  6.83E-04  4.70E-03  0.17141
    766.   13.055  9.43E-06  5.53E-04  2.42E-06  1.42E-04  0.00E+00  0.00E+00  1.19E-05  6.96E-04  4.72E-03  0.17572
    768.   13.021  9.67E-06  5.70E-04  2.08E-06  1.23E-04  0.00E+00  0.00E+00  1.17E-05  6.93E-04  4.75E-03  0.15133
    770.   12.987  9.69E-06  5.75E-04  2.03E-06  1.20E-04  0.00E+00  0.00E+00  1.17E-05  6.95E-04  4.77E-03  0.14789
    772.   12.953  9.25E-06  5.51E-04  2.90E-06  1.73E-04  0.00E+00  0.00E+00  1.22E-05  7.24E-04  4.79E-03  0.21198
    774.   12.920  9.36E-06  5.61E-04  2.76E-06  1.66E-04  0.00E+00  0.00E+00  1.21E-05  7.26E-04  4.82E-03  0.20215
    776.   12.887  9.85E-06  5.93E-04  1.73E-06  1.04E-04  0.00E+00  0.00E+00  1.16E-05  6.97E-04  4.84E-03  0.12690
    778.   12.853  9.63E-06  5.83E-04  2.10E-06  1.27E-04  0.00E+00  0.00E+00  1.17E-05  7.10E-04  4.86E-03  0.15440
    780.   12.821  9.15E-06  5.56E-04  3.04E-06  1.85E-04  0.00E+00  0.00E+00  1.22E-05  7.41E-04  4.89E-03  0.22387
    782.   12.788  8.99E-06  5.49E-04  3.13E-06  1.92E-04  0.00E+00  0.00E+00  1.21E-05  7.41E-04  4.91E-03  0.23119
    784.   12.755  9.52E-06  5.85E-04  2.06E-06  1.27E-04  0.00E+00  0.00E+00  1.16E-05  7.12E-04  4.94E-03  0.15236
    786.   12.723  9.08E-06  5.61E-04  2.99E-06  1.85E-04  0.00E+00  0.00E+00  1.21E-05  7.46E-04  4.96E-03  0.22181
    788.   12.690  8.41E-06  5.22E-04  4.04E-06  2.51E-04  0.00E+00  0.00E+00  1.24E-05  7.73E-04  4.98E-03  0.29985
    790.   12.658  8.40E-06  5.24E-04  3.47E-06  2.16E-04  0.00E+00  0.00E+00  1.19E-05  7.41E-04  5.01E-03  0.25799
    792.   12.626  8.82E-06  5.54E-04  1.93E-06  1.21E-04  0.00E+00  0.00E+00  1.08E-05  6.74E-04  5.03E-03  0.14365
    794.   12.594  9.62E-06  6.06E-04  1.41E-06  8.91E-05  0.00E+00  0.00E+00  1.10E-05  6.95E-04  5.05E-03  0.10560
    796.   12.563  9.74E-06  6.17E-04  1.40E-06  8.89E-05  0.00E+00  0.00E+00  1.11E-05  7.06E-04  5.07E-03  0.10508
    798.   12.531  9.61E-06  6.12E-04  1.34E-06  8.56E-05  0.00E+00  0.00E+00  1.10E-05  6.97E-04  5.10E-03  0.10097
    800.   12.500  8.92E-06  5.71E-04  2.50E-06  1.60E-04  0.00E+00  0.00E+00  1.14E-05  7.31E-04  5.12E-03  0.18842
  iv          805
1                                             RADIANCE(WATTS/CM2-STER-XXX)
0  FREQ   WAVLEN    PATH THERMAL      SURFACE EMISSION    SURFACE REFLECTED     TOTAL RADIANCE   INTEGRAL    TOTAL
  (CM-1) (MICRN)    (CM-1)   (MICRN)    (CM-1)   (MICRN)    (CM-1)   (MICRN)    (CM-1)   (MICRN)    (CM-1)   TRANS

    802.   12.469  8.83E-06  5.68E-04  2.99E-06  1.92E-04  0.00E+00  0.00E+00  1.18E-05  7.60E-04  5.14E-03  0.22555
    804.   12.438  9.02E-06  5.83E-04  2.54E-06  1.64E-04  0.00E+00  0.00E+00  1.16E-05  7.47E-04  5.17E-03  0.19183
    806.   12.407  8.59E-06  5.58E-04  3.20E-06  2.08E-04  0.00E+00  0.00E+00  1.18E-05  7.66E-04  5.19E-03  0.24281
    808.   12.376  8.67E-06  5.66E-04  3.00E-06  1.96E-04  0.00E+00  0.00E+00  1.17E-05  7.62E-04  5.21E-03  0.22790
    810.   12.346  8.00E-06  5.25E-04  4.00E-06  2.62E-04  0.00E+00  0.00E+00  1.20E-05  7.87E-04  5.24E-03  0.30457
    812.   12.315  7.86E-06  5.18E-04  4.20E-06  2.77E-04  0.00E+00  0.00E+00  1.21E-05  7.95E-04  5.26E-03  0.32039
    814.   12.285  8.62E-06  5.71E-04  3.05E-06  2.02E-04  0.00E+00  0.00E+00  1.17E-05  7.73E-04  5.28E-03  0.23314
    816.   12.255  8.13E-06  5.42E-04  3.72E-06  2.48E-04  0.00E+00  0.00E+00  1.19E-05  7.89E-04  5.31E-03  0.28517
    818.   12.225  7.33E-06  4.91E-04  4.83E-06  3.23E-04  0.00E+00  0.00E+00  1.22E-05  8.14E-04  5.33E-03  0.37144
    820.   12.195  7.20E-06  4.84E-04  4.97E-06  3.35E-04  0.00E+00  0.00E+00  1.22E-05  8.19E-04  5.36E-03  0.38328
    822.   12.165  7.16E-06  4.84E-04  5.00E-06  3.38E-04  0.00E+00  0.00E+00  1.22E-05  8.22E-04  5.38E-03  0.38618
    824.   12.136  7.36E-06  5.00E-04  4.67E-06  3.17E-04  0.00E+00  0.00E+00  1.20E-05  8.17E-04  5.40E-03  0.36120
    826.   12.107  7.86E-06  5.36E-04  3.95E-06  2.70E-04  0.00E+00  0.00E+00  1.18E-05  8.06E-04  5.43E-03  0.30686
    828.   12.077  8.04E-06  5.51E-04  3.63E-06  2.49E-04  0.00E+00  0.00E+00  1.17E-05  8.00E-04  5.45E-03  0.28211
    830.   12.048  7.16E-06  4.93E-04  4.80E-06  3.31E-04  0.00E+00  0.00E+00  1.20E-05  8.24E-04  5.48E-03  0.37488
    832.   12.019  6.80E-06  4.71E-04  5.28E-06  3.65E-04  0.00E+00  0.00E+00  1.21E-05  8.36E-04  5.50E-03  0.41261
    834.   11.990  6.85E-06  4.76E-04  5.18E-06  3.60E-04  0.00E+00  0.00E+00  1.20E-05  8.36E-04  5.52E-03  0.40572
    836.   11.962  7.02E-06  4.91E-04  4.92E-06  3.44E-04  0.00E+00  0.00E+00  1.19E-05  8.34E-04  5.55E-03  0.38657
    838.   11.933  7.13E-06  5.01E-04  4.68E-06  3.29E-04  0.00E+00  0.00E+00  1.18E-05  8.30E-04  5.57E-03  0.36872
    840.   11.905  7.69E-06  5.42E-04  3.83E-06  2.70E-04  0.00E+00  0.00E+00  1.15E-05  8.12E-04  5.59E-03  0.30228
    842.   11.876  7.18E-06  5.09E-04  4.49E-06  3.18E-04  0.00E+00  0.00E+00  1.17E-05  8.28E-04  5.62E-03  0.35568
    844.   11.848  6.57E-06  4.68E-04  5.27E-06  3.75E-04  0.00E+00  0.00E+00  1.18E-05  8.43E-04  5.64E-03  0.41851
    846.   11.820  6.45E-06  4.62E-04  5.37E-06  3.84E-04  0.00E+00  0.00E+00  1.18E-05  8.46E-04  5.67E-03  0.42766
    848.   11.792  6.72E-06  4.83E-04  4.95E-06  3.56E-04  0.00E+00  0.00E+00  1.17E-05  8.39E-04  5.69E-03  0.39482
    850.   11.765  7.50E-06  5.42E-04  3.73E-06  2.69E-04  0.00E+00  0.00E+00  1.12E-05  8.11E-04  5.71E-03  0.29841
    852.   11.737  8.20E-06  5.95E-04  2.65E-06  1.92E-04  0.00E+00  0.00E+00  1.08E-05  7.87E-04  5.73E-03  0.21272
    854.   11.710  7.94E-06  5.79E-04  3.12E-06  2.28E-04  0.00E+00  0.00E+00  1.11E-05  8.07E-04  5.75E-03  0.25152
    856.   11.682  6.82E-06  5.00E-04  4.67E-06  3.42E-04  0.00E+00  0.00E+00  1.15E-05  8.41E-04  5.78E-03  0.37674
    858.   11.655  6.25E-06  4.60E-04  5.42E-06  3.99E-04  0.00E+00  0.00E+00  1.17E-05  8.59E-04  5.80E-03  0.43880
    860.   11.628  6.24E-06  4.62E-04  5.40E-06  3.99E-04  0.00E+00  0.00E+00  1.16E-05  8.61E-04  5.82E-03  0.43799
    862.   11.601  6.00E-06  4.46E-04  5.65E-06  4.20E-04  0.00E+00  0.00E+00  1.17E-05  8.66E-04  5.85E-03  0.45989
    864.   11.574  6.45E-06  4.81E-04  5.00E-06  3.73E-04  0.00E+00  0.00E+00  1.15E-05  8.55E-04  5.87E-03  0.40816
    866.   11.547  6.45E-06  4.84E-04  4.97E-06  3.72E-04  0.00E+00  0.00E+00  1.14E-05  8.56E-04  5.89E-03  0.40648
    868.   11.521  5.84E-06  4.40E-04  5.73E-06  4.32E-04  0.00E+00  0.00E+00  1.16E-05  8.72E-04  5.92E-03  0.47051
    870.   11.494  6.17E-06  4.67E-04  5.20E-06  3.93E-04  0.00E+00  0.00E+00  1.14E-05  8.60E-04  5.94E-03  0.42768
    872.   11.468  6.20E-06  4.71E-04  5.12E-06  3.89E-04  0.00E+00  0.00E+00  1.13E-05  8.61E-04  5.96E-03  0.42270
    874.   11.442  5.71E-06  4.36E-04  5.76E-06  4.40E-04  0.00E+00  0.00E+00  1.15E-05  8.76E-04  5.98E-03  0.47710
    876.   11.416  5.68E-06  4.36E-04  5.76E-06  4.42E-04  0.00E+00  0.00E+00  1.14E-05  8.78E-04  6.01E-03  0.47769
    878.   11.390  6.05E-06  4.66E-04  5.23E-06  4.03E-04  0.00E+00  0.00E+00  1.13E-05  8.69E-04  6.03E-03  0.43493
    880.   11.364  6.11E-06  4.73E-04  5.09E-06  3.94E-04  0.00E+00  0.00E+00  1.12E-05  8.67E-04  6.05E-03  0.42460
    882.   11.338  6.04E-06  4.70E-04  5.16E-06  4.01E-04  0.00E+00  0.00E+00  1.12E-05  8.71E-04  6.08E-03  0.43172
    884.   11.312  6.18E-06  4.83E-04  4.91E-06  3.83E-04  0.00E+00  0.00E+00  1.11E-05  8.67E-04  6.10E-03  0.41204
    886.   11.287  6.09E-06  4.78E-04  4.92E-06  3.86E-04  0.00E+00  0.00E+00  1.10E-05  8.64E-04  6.12E-03  0.41445
    888.   11.261  6.30E-06  4.97E-04  4.64E-06  3.66E-04  0.00E+00  0.00E+00  1.09E-05  8.62E-04  6.14E-03  0.39152
    890.   11.236  6.04E-06  4.79E-04  5.00E-06  3.96E-04  0.00E+00  0.00E+00  1.10E-05  8.75E-04  6.16E-03  0.42341
    892.   11.211  5.49E-06  4.37E-04  5.65E-06  4.50E-04  0.00E+00  0.00E+00  1.11E-05  8.86E-04  6.19E-03  0.48024
    894.   11.186  5.18E-06  4.14E-04  5.99E-06  4.79E-04  0.00E+00  0.00E+00  1.12E-05  8.93E-04  6.21E-03  0.51043
    896.   11.161  5.27E-06  4.23E-04  5.85E-06  4.70E-04  0.00E+00  0.00E+00  1.11E-05  8.93E-04  6.23E-03  0.49995
    898.   11.136  5.33E-06  4.30E-04  5.74E-06  4.63E-04  0.00E+00  0.00E+00  1.11E-05  8.92E-04  6.25E-03  0.49185
    900.   11.111  5.10E-06  4.13E-04  5.97E-06  4.84E-04  0.00E+00  0.00E+00  1.11E-05  8.97E-04  6.27E-03  0.51364
  iv          905
1                                             RADIANCE(WATTS/CM2-STER-XXX)
0  FREQ   WAVLEN    PATH THERMAL      SURFACE EMISSION    SURFACE REFLECTED     TOTAL RADIANCE   INTEGRAL    TOTAL
  (CM-1) (MICRN)    (CM-1)   (MICRN)    (CM-1)   (MICRN)    (CM-1)   (MICRN)    (CM-1)   (MICRN)    (CM-1)   TRANS

    902.   11.086  5.02E-06  4.08E-04  6.03E-06  4.90E-04  0.00E+00  0.00E+00  1.10E-05  8.99E-04  6.30E-03  0.51971
    904.   11.062  5.14E-06  4.20E-04  5.83E-06  4.77E-04  0.00E+00  0.00E+00  1.10E-05  8.97E-04  6.32E-03  0.50463
    906.   11.038  5.47E-06  4.49E-04  5.39E-06  4.42E-04  0.00E+00  0.00E+00  1.09E-05  8.91E-04  6.34E-03  0.46744
    908.   11.013  5.88E-06  4.85E-04  4.75E-06  3.92E-04  0.00E+00  0.00E+00  1.06E-05  8.77E-04  6.36E-03  0.41371
    910.   10.989  5.70E-06  4.72E-04  4.92E-06  4.08E-04  0.00E+00  0.00E+00  1.06E-05  8.80E-04  6.38E-03  0.43005
    912.   10.965  5.08E-06  4.23E-04  5.72E-06  4.76E-04  0.00E+00  0.00E+00  1.08E-05  8.99E-04  6.40E-03  0.50146
    914.   10.941  5.09E-06  4.25E-04  5.67E-06  4.73E-04  0.00E+00  0.00E+00  1.08E-05  8.99E-04  6.43E-03  0.49791
    916.   10.917  4.97E-06  4.17E-04  5.76E-06  4.83E-04  0.00E+00  0.00E+00  1.07E-05  9.01E-04  6.45E-03  0.50785
    918.   10.893  5.06E-06  4.26E-04  5.61E-06  4.73E-04  0.00E+00  0.00E+00  1.07E-05  8.99E-04  6.47E-03  0.49642
    920.   10.870  5.19E-06  4.39E-04  5.38E-06  4.55E-04  0.00E+00  0.00E+00  1.06E-05  8.95E-04  6.49E-03  0.47686
    922.   10.846  5.58E-06  4.74E-04  4.79E-06  4.08E-04  0.00E+00  0.00E+00  1.04E-05  8.82E-04  6.51E-03  0.42667
    924.   10.823  5.42E-06  4.63E-04  4.96E-06  4.23E-04  0.00E+00  0.00E+00  1.04E-05  8.86E-04  6.53E-03  0.44239
    926.   10.799  5.06E-06  4.34E-04  5.38E-06  4.62E-04  0.00E+00  0.00E+00  1.04E-05  8.96E-04  6.55E-03  0.48216
    928.   10.776  4.75E-06  4.09E-04  5.77E-06  4.97E-04  0.00E+00  0.00E+00  1.05E-05  9.06E-04  6.57E-03  0.51814
    930.   10.753  4.73E-06  4.09E-04  5.75E-06  4.97E-04  0.00E+00  0.00E+00  1.05E-05  9.06E-04  6.59E-03  0.51832
    932.   10.730  4.58E-06  3.98E-04  5.88E-06  5.11E-04  0.00E+00  0.00E+00  1.05E-05  9.09E-04  6.62E-03  0.53179
    934.   10.707  4.53E-06  3.95E-04  5.90E-06  5.15E-04  0.00E+00  0.00E+00  1.04E-05  9.10E-04  6.64E-03  0.53540
    936.   10.684  4.53E-06  3.97E-04  5.86E-06  5.13E-04  0.00E+00  0.00E+00  1.04E-05  9.10E-04  6.66E-03  0.53297
    938.   10.661  4.52E-06  3.97E-04  5.83E-06  5.13E-04  0.00E+00  0.00E+00  1.03E-05  9.10E-04  6.68E-03  0.53208
    940.   10.638  4.64E-06  4.10E-04  5.60E-06  4.95E-04  0.00E+00  0.00E+00  1.02E-05  9.05E-04  6.70E-03  0.51288
    942.   10.616  4.67E-06  4.14E-04  5.48E-06  4.87E-04  0.00E+00  0.00E+00  1.02E-05  9.01E-04  6.72E-03  0.50397
    944.   10.593  4.65E-06  4.15E-04  5.48E-06  4.88E-04  0.00E+00  0.00E+00  1.01E-05  9.03E-04  6.74E-03  0.50489
    946.   10.571  4.84E-06  4.33E-04  5.16E-06  4.62E-04  0.00E+00  0.00E+00  1.00E-05  8.95E-04  6.76E-03  0.47765
    948.   10.549  5.07E-06  4.56E-04  4.73E-06  4.25E-04  0.00E+00  0.00E+00  9.80E-06  8.81E-04  6.78E-03  0.43877
    950.   10.526  4.55E-06  4.11E-04  5.43E-06  4.90E-04  0.00E+00  0.00E+00  9.98E-06  9.00E-04  6.80E-03  0.50580
    952.   10.504  4.46E-06  4.04E-04  5.56E-06  5.04E-04  0.00E+00  0.00E+00  1.00E-05  9.08E-04  6.82E-03  0.51957
    954.   10.482  4.76E-06  4.33E-04  5.13E-06  4.67E-04  0.00E+00  0.00E+00  9.88E-06  9.00E-04  6.84E-03  0.48085
    956.   10.460  4.56E-06  4.17E-04  5.34E-06  4.88E-04  0.00E+00  0.00E+00  9.90E-06  9.05E-04  6.86E-03  0.50246
    958.   10.438  4.25E-06  3.90E-04  5.74E-06  5.27E-04  0.00E+00  0.00E+00  1.00E-05  9.17E-04  6.88E-03  0.54228
    960.   10.417  4.25E-06  3.92E-04  5.75E-06  5.30E-04  0.00E+00  0.00E+00  1.00E-05  9.22E-04  6.90E-03  0.54505
    962.   10.395  3.97E-06  3.67E-04  6.06E-06  5.60E-04  0.00E+00  0.00E+00  1.00E-05  9.27E-04  6.92E-03  0.57578
    964.   10.373  3.92E-06  3.64E-04  6.01E-06  5.59E-04  0.00E+00  0.00E+00  9.93E-06  9.23E-04  6.94E-03  0.57366
    966.   10.352  4.22E-06  3.94E-04  5.55E-06  5.18E-04  0.00E+00  0.00E+00  9.78E-06  9.12E-04  6.96E-03  0.53159
    968.   10.331  4.15E-06  3.89E-04  5.56E-06  5.21E-04  0.00E+00  0.00E+00  9.71E-06  9.10E-04  6.98E-03  0.53443
    970.   10.309  4.30E-06  4.04E-04  5.32E-06  5.00E-04  0.00E+00  0.00E+00  9.61E-06  9.05E-04  7.00E-03  0.51240
    972.   10.288  4.74E-06  4.48E-04  4.68E-06  4.42E-04  0.00E+00  0.00E+00  9.42E-06  8.90E-04  7.01E-03  0.45278
    974.   10.267  4.59E-06  4.36E-04  4.83E-06  4.59E-04  0.00E+00  0.00E+00  9.43E-06  8.94E-04  7.03E-03  0.46930
    976.   10.246  4.61E-06  4.39E-04  4.72E-06  4.50E-04  0.00E+00  0.00E+00  9.33E-06  8.89E-04  7.05E-03  0.45971
    978.   10.225  4.14E-06  3.96E-04  5.32E-06  5.09E-04  0.00E+00  0.00E+00  9.46E-06  9.04E-04  7.07E-03  0.52007
    980.   10.204  3.75E-06  3.61E-04  5.78E-06  5.55E-04  0.00E+00  0.00E+00  9.53E-06  9.16E-04  7.09E-03  0.56688
    982.   10.183  3.77E-06  3.63E-04  5.70E-06  5.50E-04  0.00E+00  0.00E+00  9.47E-06  9.13E-04  7.11E-03  0.56130
    984.   10.163  3.69E-06  3.57E-04  5.78E-06  5.59E-04  0.00E+00  0.00E+00  9.46E-06  9.16E-04  7.13E-03  0.57073
    986.   10.142  3.41E-06  3.32E-04  6.06E-06  5.89E-04  0.00E+00  0.00E+00  9.47E-06  9.21E-04  7.15E-03  0.60056
    988.   10.121  3.32E-06  3.24E-04  6.08E-06  5.93E-04  0.00E+00  0.00E+00  9.40E-06  9.17E-04  7.17E-03  0.60453
    990.   10.101  3.31E-06  3.24E-04  6.00E-06  5.88E-04  0.00E+00  0.00E+00  9.31E-06  9.12E-04  7.18E-03  0.59910
    992.   10.081  3.20E-06  3.15E-04  5.99E-06  5.90E-04  0.00E+00  0.00E+00  9.20E-06  9.05E-04  7.20E-03  0.60074
    994.   10.060  3.17E-06  3.13E-04  5.92E-06  5.85E-04  0.00E+00  0.00E+00  9.08E-06  8.97E-04  7.22E-03  0.59522
    996.   10.040  3.14E-06  3.12E-04  5.79E-06  5.75E-04  0.00E+00  0.00E+00  8.93E-06  8.86E-04  7.24E-03  0.58470
    998.   10.020  3.41E-06  3.40E-04  5.28E-06  5.26E-04  0.00E+00  0.00E+00  8.69E-06  8.66E-04  7.26E-03  0.53500
   1000.   10.000  3.60E-06  3.60E-04  4.88E-06  4.88E-04  0.00E+00  0.00E+00  8.48E-06  8.48E-04  7.27E-03  0.49595
  iv         1005
1                                             RADIANCE(WATTS/CM2-STER-XXX)
0  FREQ   WAVLEN    PATH THERMAL      SURFACE EMISSION    SURFACE REFLECTED     TOTAL RADIANCE   INTEGRAL    TOTAL
  (CM-1) (MICRN)    (CM-1)   (MICRN)    (CM-1)   (MICRN)    (CM-1)   (MICRN)    (CM-1)   (MICRN)    (CM-1)   TRANS

   1002.    9.980  3.31E-06  3.32E-04  5.02E-06  5.04E-04  0.00E+00  0.00E+00  8.33E-06  8.36E-04  7.29E-03  0.51237
   1004.    9.960  3.34E-06  3.37E-04  4.78E-06  4.82E-04  0.00E+00  0.00E+00  8.12E-06  8.19E-04  7.31E-03  0.48997
   1006.    9.940  3.18E-06  3.22E-04  4.73E-06  4.79E-04  0.00E+00  0.00E+00  7.91E-06  8.00E-04  7.32E-03  0.48615
   1008.    9.921  3.18E-06  3.23E-04  4.58E-06  4.65E-04  0.00E+00  0.00E+00  7.76E-06  7.88E-04  7.34E-03  0.47218
   1010.    9.901  3.58E-06  3.65E-04  3.84E-06  3.92E-04  0.00E+00  0.00E+00  7.42E-06  7.57E-04  7.35E-03  0.39774
   1012.    9.881  3.51E-06  3.59E-04  3.63E-06  3.72E-04  0.00E+00  0.00E+00  7.14E-06  7.32E-04  7.37E-03  0.37781
   1014.    9.862  3.46E-06  3.55E-04  3.46E-06  3.56E-04  0.00E+00  0.00E+00  6.92E-06  7.11E-04  7.38E-03  0.36109
   1016.    9.843  3.35E-06  3.46E-04  3.44E-06  3.55E-04  0.00E+00  0.00E+00  6.78E-06  7.00E-04  7.39E-03  0.35979
   1018.    9.823  3.35E-06  3.47E-04  3.14E-06  3.26E-04  0.00E+00  0.00E+00  6.49E-06  6.72E-04  7.41E-03  0.33034
   1020.    9.804  3.01E-06  3.13E-04  3.33E-06  3.47E-04  0.00E+00  0.00E+00  6.34E-06  6.60E-04  7.42E-03  0.35188
   1022.    9.785  2.85E-06  2.97E-04  3.34E-06  3.49E-04  0.00E+00  0.00E+00  6.19E-06  6.47E-04  7.43E-03  0.35412
   1024.    9.766  2.75E-06  2.89E-04  3.33E-06  3.49E-04  0.00E+00  0.00E+00  6.09E-06  6.38E-04  7.44E-03  0.35421
   1026.    9.747  2.81E-06  2.96E-04  3.24E-06  3.41E-04  0.00E+00  0.00E+00  6.05E-06  6.37E-04  7.46E-03  0.34525
   1028.    9.728  3.26E-06  3.45E-04  2.56E-06  2.71E-04  0.00E+00  0.00E+00  5.83E-06  6.16E-04  7.47E-03  0.27464
   1030.    9.709  3.28E-06  3.48E-04  2.44E-06  2.58E-04  0.00E+00  0.00E+00  5.72E-06  6.07E-04  7.48E-03  0.26200
   1032.    9.690  2.93E-06  3.12E-04  2.91E-06  3.10E-04  0.00E+00  0.00E+00  5.84E-06  6.22E-04  7.49E-03  0.31420
   1034.    9.671  2.72E-06  2.90E-04  3.07E-06  3.28E-04  0.00E+00  0.00E+00  5.78E-06  6.18E-04  7.50E-03  0.33248
   1036.    9.653  2.67E-06  2.86E-04  2.92E-06  3.13E-04  0.00E+00  0.00E+00  5.58E-06  5.99E-04  7.51E-03  0.31727
   1038.    9.634  2.80E-06  3.01E-04  2.50E-06  2.69E-04  0.00E+00  0.00E+00  5.29E-06  5.70E-04  7.52E-03  0.27246
   1040.    9.615  2.77E-06  2.99E-04  2.42E-06  2.62E-04  0.00E+00  0.00E+00  5.19E-06  5.61E-04  7.53E-03  0.26536
   1042.    9.597  2.74E-06  2.97E-04  3.61E-06  3.92E-04  0.00E+00  0.00E+00  6.35E-06  6.89E-04  7.55E-03  0.39737
   1044.    9.579  2.73E-06  2.97E-04  4.39E-06  4.79E-04  0.00E+00  0.00E+00  7.12E-06  7.76E-04  7.56E-03  0.48538
   1046.    9.560  2.58E-06  2.82E-04  3.62E-06  3.97E-04  0.00E+00  0.00E+00  6.20E-06  6.79E-04  7.57E-03  0.40179
   1048.    9.542  2.71E-06  2.97E-04  2.60E-06  2.85E-04  0.00E+00  0.00E+00  5.30E-06  5.82E-04  7.58E-03  0.28897
   1050.    9.524  2.89E-06  3.19E-04  2.01E-06  2.21E-04  0.00E+00  0.00E+00  4.90E-06  5.40E-04  7.59E-03  0.22444
   1052.    9.506  2.73E-06  3.02E-04  2.04E-06  2.26E-04  0.00E+00  0.00E+00  4.77E-06  5.27E-04  7.60E-03  0.22884
   1054.    9.488  2.61E-06  2.90E-04  2.06E-06  2.29E-04  0.00E+00  0.00E+00  4.68E-06  5.20E-04  7.61E-03  0.23254
   1056.    9.470  2.71E-06  3.02E-04  1.95E-06  2.18E-04  0.00E+00  0.00E+00  4.67E-06  5.20E-04  7.62E-03  0.22103
   1058.    9.452  2.77E-06  3.10E-04  2.24E-06  2.51E-04  0.00E+00  0.00E+00  5.01E-06  5.60E-04  7.63E-03  0.25433
   1060.    9.434  2.89E-06  3.24E-04  2.50E-06  2.81E-04  0.00E+00  0.00E+00  5.39E-06  6.05E-04  7.64E-03  0.28493
   1062.    9.416  2.85E-06  3.22E-04  2.94E-06  3.32E-04  0.00E+00  0.00E+00  5.80E-06  6.54E-04  7.65E-03  0.33687
   1064.    9.398  2.98E-06  3.37E-04  3.36E-06  3.80E-04  0.00E+00  0.00E+00  6.34E-06  7.17E-04  7.67E-03  0.38571
   1066.    9.381  3.52E-06  4.00E-04  3.17E-06  3.60E-04  0.00E+00  0.00E+00  6.69E-06  7.61E-04  7.68E-03  0.36572
   1068.    9.363  3.09E-06  3.53E-04  4.10E-06  4.68E-04  0.00E+00  0.00E+00  7.19E-06  8.20E-04  7.70E-03  0.47512
   1070.    9.346  2.60E-06  2.98E-04  5.01E-06  5.73E-04  0.00E+00  0.00E+00  7.61E-06  8.71E-04  7.71E-03  0.58261
   1072.    9.328  3.07E-06  3.53E-04  4.56E-06  5.24E-04  0.00E+00  0.00E+00  7.63E-06  8.77E-04  7.73E-03  0.53266
   1074.    9.311  3.74E-06  4.31E-04  3.62E-06  4.18E-04  0.00E+00  0.00E+00  7.37E-06  8.50E-04  7.74E-03  0.42499
   1076.    9.294  3.18E-06  3.69E-04  4.30E-06  4.97E-04  0.00E+00  0.00E+00  7.48E-06  8.66E-04  7.76E-03  0.50602
   1078.    9.276  2.62E-06  3.05E-04  5.07E-06  5.89E-04  0.00E+00  0.00E+00  7.69E-06  8.94E-04  7.77E-03  0.59929
   1080.    9.259  2.68E-06  3.13E-04  4.88E-06  5.69E-04  0.00E+00  0.00E+00  7.56E-06  8.82E-04  7.79E-03  0.57894
   1082.    9.242  2.63E-06  3.08E-04  4.95E-06  5.79E-04  0.00E+00  0.00E+00  7.57E-06  8.87E-04  7.80E-03  0.58965
   1084.    9.225  2.59E-06  3.04E-04  5.09E-06  5.98E-04  0.00E+00  0.00E+00  7.67E-06  9.02E-04  7.82E-03  0.60856
   1086.    9.208  2.62E-06  3.09E-04  4.99E-06  5.89E-04  0.00E+00  0.00E+00  7.61E-06  8.98E-04  7.83E-03  0.59957
   1088.    9.191  2.43E-06  2.88E-04  5.22E-06  6.17E-04  0.00E+00  0.00E+00  7.65E-06  9.05E-04  7.85E-03  0.62930
   1090.    9.174  2.91E-06  3.45E-04  4.59E-06  5.45E-04  0.00E+00  0.00E+00  7.50E-06  8.91E-04  7.86E-03  0.55570
   1092.    9.158  2.94E-06  3.51E-04  4.56E-06  5.44E-04  0.00E+00  0.00E+00  7.50E-06  8.94E-04  7.88E-03  0.55487
   1094.    9.141  2.12E-06  2.53E-04  5.60E-06  6.70E-04  0.00E+00  0.00E+00  7.71E-06  9.23E-04  7.89E-03  0.68371
   1096.    9.124  1.96E-06  2.35E-04  5.78E-06  6.95E-04  0.00E+00  0.00E+00  7.74E-06  9.30E-04  7.91E-03  0.70926
   1098.    9.107  2.39E-06  2.89E-04  5.20E-06  6.27E-04  0.00E+00  0.00E+00  7.59E-06  9.15E-04  7.92E-03  0.64012
   1100.    9.091  3.51E-06  4.25E-04  3.63E-06  4.39E-04  0.00E+00  0.00E+00  7.14E-06  8.64E-04  7.94E-03  0.44834
  iv         1105
1                                             RADIANCE(WATTS/CM2-STER-XXX)
0  FREQ   WAVLEN    PATH THERMAL      SURFACE EMISSION    SURFACE REFLECTED     TOTAL RADIANCE   INTEGRAL    TOTAL
  (CM-1) (MICRN)    (CM-1)   (MICRN)    (CM-1)   (MICRN)    (CM-1)   (MICRN)    (CM-1)   (MICRN)    (CM-1)   TRANS

   1102.    9.074  3.05E-06  3.71E-04  4.23E-06  5.13E-04  0.00E+00  0.00E+00  7.28E-06  8.84E-04  7.95E-03  0.52532
   1104.    9.058  2.30E-06  2.80E-04  5.27E-06  6.42E-04  0.00E+00  0.00E+00  7.57E-06  9.22E-04  7.97E-03  0.65704
   1106.    9.042  3.16E-06  3.87E-04  4.05E-06  4.95E-04  0.00E+00  0.00E+00  7.21E-06  8.82E-04  7.98E-03  0.50664
   1108.    9.025  2.95E-06  3.62E-04  4.27E-06  5.24E-04  0.00E+00  0.00E+00  7.22E-06  8.86E-04  8.00E-03  0.53705
   1110.    9.009  2.65E-06  3.27E-04  4.66E-06  5.74E-04  0.00E+00  0.00E+00  7.32E-06  9.01E-04  8.01E-03  0.58846
   1112.    8.993  3.11E-06  3.84E-04  3.91E-06  4.84E-04  0.00E+00  0.00E+00  7.02E-06  8.68E-04  8.02E-03  0.49602
   1114.    8.977  2.24E-06  2.78E-04  5.06E-06  6.28E-04  0.00E+00  0.00E+00  7.30E-06  9.06E-04  8.04E-03  0.64476
   1116.    8.961  2.02E-06  2.52E-04  5.36E-06  6.67E-04  0.00E+00  0.00E+00  7.38E-06  9.19E-04  8.05E-03  0.68525
   1118.    8.945  2.34E-06  2.93E-04  4.91E-06  6.14E-04  0.00E+00  0.00E+00  7.25E-06  9.07E-04  8.07E-03  0.63077
   1120.    8.929  3.08E-06  3.86E-04  3.77E-06  4.73E-04  0.00E+00  0.00E+00  6.85E-06  8.59E-04  8.08E-03  0.48620
   1122.    8.913  3.10E-06  3.90E-04  3.70E-06  4.66E-04  0.00E+00  0.00E+00  6.80E-06  8.56E-04  8.10E-03  0.47999
   1124.    8.897  2.07E-06  2.62E-04  5.11E-06  6.46E-04  0.00E+00  0.00E+00  7.18E-06  9.08E-04  8.11E-03  0.66540
   1126.    8.881  1.81E-06  2.29E-04  5.40E-06  6.85E-04  0.00E+00  0.00E+00  7.21E-06  9.14E-04  8.12E-03  0.70618
   1128.    8.865  1.77E-06  2.25E-04  5.43E-06  6.91E-04  0.00E+00  0.00E+00  7.20E-06  9.17E-04  8.14E-03  0.71298
   1130.    8.850  1.86E-06  2.37E-04  5.30E-06  6.77E-04  0.00E+00  0.00E+00  7.16E-06  9.14E-04  8.15E-03  0.69903
   1132.    8.834  2.08E-06  2.67E-04  5.02E-06  6.44E-04  0.00E+00  0.00E+00  7.10E-06  9.10E-04  8.17E-03  0.66492
   1134.    8.818  3.34E-06  4.29E-04  3.24E-06  4.17E-04  0.00E+00  0.00E+00  6.58E-06  8.46E-04  8.18E-03  0.43033
   1136.    8.803  4.47E-06  5.77E-04  1.28E-06  1.65E-04  0.00E+00  0.00E+00  5.75E-06  7.41E-04  8.19E-03  0.17014
   1138.    8.787  3.52E-06  4.55E-04  2.85E-06  3.69E-04  0.00E+00  0.00E+00  6.37E-06  8.24E-04  8.21E-03  0.38272
   1140.    8.772  2.25E-06  2.92E-04  4.76E-06  6.18E-04  0.00E+00  0.00E+00  7.00E-06  9.10E-04  8.22E-03  0.64058
   1142.    8.757  2.06E-06  2.68E-04  4.95E-06  6.45E-04  0.00E+00  0.00E+00  7.00E-06  9.13E-04  8.23E-03  0.66897
   1144.    8.741  1.83E-06  2.39E-04  5.19E-06  6.79E-04  0.00E+00  0.00E+00  7.01E-06  9.18E-04  8.25E-03  0.70453
   1146.    8.726  1.81E-06  2.37E-04  5.18E-06  6.81E-04  0.00E+00  0.00E+00  6.99E-06  9.18E-04  8.26E-03  0.70731
   1148.    8.711  2.66E-06  3.50E-04  3.94E-06  5.20E-04  0.00E+00  0.00E+00  6.60E-06  8.70E-04  8.27E-03  0.53998
   1150.    8.696  3.44E-06  4.55E-04  2.88E-06  3.81E-04  0.00E+00  0.00E+00  6.32E-06  8.35E-04  8.29E-03  0.39611
   1152.    8.681  3.47E-06  4.60E-04  2.79E-06  3.70E-04  0.00E+00  0.00E+00  6.26E-06  8.30E-04  8.30E-03  0.38553
   1154.    8.666  2.52E-06  3.36E-04  4.10E-06  5.47E-04  0.00E+00  0.00E+00  6.62E-06  8.82E-04  8.31E-03  0.57035
   1156.    8.651  1.75E-06  2.34E-04  5.09E-06  6.81E-04  0.00E+00  0.00E+00  6.84E-06  9.15E-04  8.33E-03  0.71062
   1158.    8.636  1.66E-06  2.23E-04  5.17E-06  6.94E-04  0.00E+00  0.00E+00  6.83E-06  9.16E-04  8.34E-03  0.72468
   1160.    8.621  1.71E-06  2.30E-04  5.08E-06  6.83E-04  0.00E+00  0.00E+00  6.79E-06  9.13E-04  8.35E-03  0.71462
   1162.    8.606  1.90E-06  2.56E-04  4.83E-06  6.52E-04  0.00E+00  0.00E+00  6.72E-06  9.08E-04  8.37E-03  0.68224
   1164.    8.591  2.98E-06  4.04E-04  3.19E-06  4.32E-04  0.00E+00  0.00E+00  6.17E-06  8.36E-04  8.38E-03  0.45238
   1166.    8.576  3.42E-06  4.66E-04  2.53E-06  3.45E-04  0.00E+00  0.00E+00  5.96E-06  8.10E-04  8.39E-03  0.36175
   1168.    8.562  2.28E-06  3.11E-04  4.24E-06  5.78E-04  0.00E+00  0.00E+00  6.52E-06  8.89E-04  8.40E-03  0.60722
   1170.    8.547  2.17E-06  2.97E-04  4.39E-06  6.00E-04  0.00E+00  0.00E+00  6.56E-06  8.98E-04  8.42E-03  0.63094
   1172.    8.532  3.00E-06  4.12E-04  3.22E-06  4.42E-04  0.00E+00  0.00E+00  6.22E-06  8.54E-04  8.43E-03  0.46504
   1174.    8.518  4.07E-06  5.61E-04  1.17E-06  1.61E-04  0.00E+00  0.00E+00  5.23E-06  7.21E-04  8.44E-03  0.16885
   1176.    8.503  3.62E-06  5.01E-04  1.94E-06  2.68E-04  0.00E+00  0.00E+00  5.55E-06  7.68E-04  8.45E-03  0.28282
   1178.    8.489  2.60E-06  3.60E-04  3.75E-06  5.20E-04  0.00E+00  0.00E+00  6.35E-06  8.81E-04  8.46E-03  0.54951
   1180.    8.475  2.32E-06  3.23E-04  4.03E-06  5.62E-04  0.00E+00  0.00E+00  6.35E-06  8.84E-04  8.48E-03  0.59361
   1182.    8.460  2.18E-06  3.04E-04  4.18E-06  5.85E-04  0.00E+00  0.00E+00  6.36E-06  8.89E-04  8.49E-03  0.61850
   1184.    8.446  2.57E-06  3.60E-04  3.70E-06  5.19E-04  0.00E+00  0.00E+00  6.27E-06  8.79E-04  8.50E-03  0.54972
   1186.    8.432  3.62E-06  5.09E-04  1.87E-06  2.63E-04  0.00E+00  0.00E+00  5.49E-06  7.72E-04  8.51E-03  0.27795
   1188.    8.418  3.84E-06  5.43E-04  1.45E-06  2.04E-04  0.00E+00  0.00E+00  5.29E-06  7.47E-04  8.52E-03  0.21730
   1190.    8.403  2.92E-06  4.14E-04  3.08E-06  4.37E-04  0.00E+00  0.00E+00  6.00E-06  8.50E-04  8.54E-03  0.46427
   1192.    8.389  2.36E-06  3.35E-04  3.79E-06  5.38E-04  0.00E+00  0.00E+00  6.15E-06  8.73E-04  8.55E-03  0.57297
   1194.    8.375  2.29E-06  3.26E-04  3.87E-06  5.52E-04  0.00E+00  0.00E+00  6.16E-06  8.78E-04  8.56E-03  0.58792
   1196.    8.361  2.74E-06  3.92E-04  3.14E-06  4.49E-04  0.00E+00  0.00E+00  5.87E-06  8.40E-04  8.57E-03  0.47819
   1198.    8.347  3.56E-06  5.11E-04  1.69E-06  2.42E-04  0.00E+00  0.00E+00  5.25E-06  7.53E-04  8.58E-03  0.25828
   1200.    8.333  3.00E-06  4.33E-04  2.68E-06  3.85E-04  0.00E+00  0.00E+00  5.68E-06  8.18E-04  8.59E-03  0.41262
  iv         1205
1                                             RADIANCE(WATTS/CM2-STER-XXX)
0  FREQ   WAVLEN    PATH THERMAL      SURFACE EMISSION    SURFACE REFLECTED     TOTAL RADIANCE   INTEGRAL    TOTAL
  (CM-1) (MICRN)    (CM-1)   (MICRN)    (CM-1)   (MICRN)    (CM-1)   (MICRN)    (CM-1)   (MICRN)    (CM-1)   TRANS

   1202.    8.319  2.00E-06  2.89E-04  4.11E-06  5.93E-04  0.00E+00  0.00E+00  6.10E-06  8.82E-04  8.61E-03  0.63547
   1204.    8.306  1.97E-06  2.86E-04  4.09E-06  5.93E-04  0.00E+00  0.00E+00  6.06E-06  8.79E-04  8.62E-03  0.63548
   1206.    8.292  2.48E-06  3.61E-04  3.40E-06  4.95E-04  0.00E+00  0.00E+00  5.89E-06  8.56E-04  8.63E-03  0.53159
   1208.    8.278  2.65E-06  3.87E-04  3.20E-06  4.66E-04  0.00E+00  0.00E+00  5.85E-06  8.53E-04  8.64E-03  0.50138
   1210.    8.264  3.29E-06  4.81E-04  1.85E-06  2.71E-04  0.00E+00  0.00E+00  5.14E-06  7.53E-04  8.65E-03  0.29177
   1212.    8.251  3.78E-06  5.55E-04  5.79E-07  8.51E-05  0.00E+00  0.00E+00  4.36E-06  6.40E-04  8.66E-03  0.09168
   1214.    8.237  3.62E-06  5.33E-04  1.46E-06  2.15E-04  0.00E+00  0.00E+00  5.07E-06  7.48E-04  8.67E-03  0.23246
   1216.    8.224  3.11E-06  4.60E-04  2.39E-06  3.54E-04  0.00E+00  0.00E+00  5.51E-06  8.15E-04  8.68E-03  0.38271
   1218.    8.210  3.50E-06  5.19E-04  1.50E-06  2.23E-04  0.00E+00  0.00E+00  5.00E-06  7.42E-04  8.69E-03  0.24079
   1220.    8.197  3.62E-06  5.38E-04  1.18E-06  1.76E-04  0.00E+00  0.00E+00  4.80E-06  7.14E-04  8.70E-03  0.19078
   1222.    8.183  3.44E-06  5.14E-04  1.66E-06  2.48E-04  0.00E+00  0.00E+00  5.10E-06  7.62E-04  8.71E-03  0.26952
   1224.    8.170  3.66E-06  5.48E-04  8.62E-07  1.29E-04  0.00E+00  0.00E+00  4.52E-06  6.77E-04  8.72E-03  0.14005
   1226.    8.157  3.55E-06  5.33E-04  8.05E-07  1.21E-04  0.00E+00  0.00E+00  4.35E-06  6.54E-04  8.73E-03  0.13201
   1228.    8.143  2.97E-06  4.47E-04  2.13E-06  3.22E-04  0.00E+00  0.00E+00  5.10E-06  7.69E-04  8.74E-03  0.35083
   1230.    8.130  2.29E-06  3.47E-04  3.00E-06  4.54E-04  0.00E+00  0.00E+00  5.29E-06  8.01E-04  8.75E-03  0.49561
   1232.    8.117  1.99E-06  3.02E-04  3.56E-06  5.41E-04  0.00E+00  0.00E+00  5.55E-06  8.43E-04  8.76E-03  0.59116
   1234.    8.104  2.07E-06  3.15E-04  3.39E-06  5.16E-04  0.00E+00  0.00E+00  5.46E-06  8.31E-04  8.77E-03  0.56480
   1236.    8.091  2.54E-06  3.88E-04  2.37E-06  3.62E-04  0.00E+00  0.00E+00  4.90E-06  7.49E-04  8.78E-03  0.39609
   1238.    8.078  3.09E-06  4.73E-04  1.54E-06  2.36E-04  0.00E+00  0.00E+00  4.63E-06  7.09E-04  8.79E-03  0.25933
   1240.    8.065  3.31E-06  5.08E-04  1.36E-06  2.09E-04  0.00E+00  0.00E+00  4.66E-06  7.17E-04  8.80E-03  0.22937
   1242.    8.052  3.27E-06  5.04E-04  1.02E-06  1.57E-04  0.00E+00  0.00E+00  4.28E-06  6.60E-04  8.81E-03  0.17226
   1244.    8.039  3.26E-06  5.05E-04  3.39E-07  5.25E-05  0.00E+00  0.00E+00  3.60E-06  5.57E-04  8.82E-03  0.05791
   1246.    8.026  3.05E-06  4.74E-04  9.33E-07  1.45E-04  0.00E+00  0.00E+00  3.99E-06  6.19E-04  8.82E-03  0.16037
   1248.    8.013  2.88E-06  4.49E-04  1.41E-06  2.19E-04  0.00E+00  0.00E+00  4.29E-06  6.69E-04  8.83E-03  0.24277
   1250.    8.000  2.93E-06  4.58E-04  1.52E-06  2.37E-04  0.00E+00  0.00E+00  4.45E-06  6.96E-04  8.84E-03  0.26305
   1252.    7.987  3.16E-06  4.96E-04  1.10E-06  1.73E-04  0.00E+00  0.00E+00  4.27E-06  6.69E-04  8.85E-03  0.19178
   1254.    7.974  3.07E-06  4.83E-04  9.34E-07  1.47E-04  0.00E+00  0.00E+00  4.01E-06  6.30E-04  8.86E-03  0.16349
   1256.    7.962  3.30E-06  5.20E-04  9.88E-07  1.56E-04  0.00E+00  0.00E+00  4.29E-06  6.76E-04  8.87E-03  0.17350
   1258.    7.949  3.44E-06  5.44E-04  4.05E-07  6.41E-05  0.00E+00  0.00E+00  3.84E-06  6.08E-04  8.87E-03  0.07130
   1260.    7.937  2.76E-06  4.38E-04  5.81E-08  9.22E-06  0.00E+00  0.00E+00  2.82E-06  4.47E-04  8.88E-03  0.01028
   1262.    7.924  2.93E-06  4.67E-04  1.76E-07  2.80E-05  0.00E+00  0.00E+00  3.11E-06  4.95E-04  8.89E-03  0.03144
   1264.    7.911  3.19E-06  5.10E-04  1.88E-07  3.00E-05  0.00E+00  0.00E+00  3.38E-06  5.40E-04  8.89E-03  0.03362
   1266.    7.899  2.91E-06  4.67E-04  2.71E-08  4.35E-06  0.00E+00  0.00E+00  2.94E-06  4.71E-04  8.90E-03  0.00487
   1268.    7.886  2.50E-06  4.02E-04  8.05E-10  1.29E-07  0.00E+00  0.00E+00  2.50E-06  4.03E-04  8.90E-03  0.00015
   1270.    7.874  2.32E-06  3.74E-04  3.04E-10  4.90E-08  0.00E+00  0.00E+00  2.32E-06  3.74E-04  8.91E-03  0.00006
   1272.    7.862  2.56E-06  4.15E-04  3.09E-08  5.00E-06  0.00E+00  0.00E+00  2.60E-06  4.20E-04  8.91E-03  0.00568
   1274.    7.849  3.11E-06  5.05E-04  3.58E-07  5.80E-05  0.00E+00  0.00E+00  3.47E-06  5.63E-04  8.92E-03  0.06582
   1276.    7.837  2.90E-06  4.73E-04  8.67E-07  1.41E-04  0.00E+00  0.00E+00  3.77E-06  6.14E-04  8.93E-03  0.16011
   1278.    7.825  3.02E-06  4.93E-04  1.02E-06  1.66E-04  0.00E+00  0.00E+00  4.04E-06  6.59E-04  8.94E-03  0.18835
   1280.    7.812  3.16E-06  5.18E-04  4.55E-07  7.46E-05  0.00E+00  0.00E+00  3.62E-06  5.93E-04  8.94E-03  0.08457
   1282.    7.800  2.83E-06  4.65E-04  1.88E-07  3.09E-05  0.00E+00  0.00E+00  3.02E-06  4.96E-04  8.95E-03  0.03517
   1284.    7.788  2.98E-06  4.92E-04  1.45E-07  2.40E-05  0.00E+00  0.00E+00  3.13E-06  5.16E-04  8.96E-03  0.02732
   1286.    7.776  2.98E-06  4.93E-04  5.21E-08  8.62E-06  0.00E+00  0.00E+00  3.03E-06  5.01E-04  8.96E-03  0.00983
   1288.    7.764  2.34E-06  3.88E-04  5.88E-09  9.75E-07  0.00E+00  0.00E+00  2.35E-06  3.89E-04  8.97E-03  0.00111
   1290.    7.752  2.86E-06  4.76E-04  3.11E-08  5.18E-06  0.00E+00  0.00E+00  2.89E-06  4.81E-04  8.97E-03  0.00597
   1292.    7.740  3.12E-06  5.21E-04  1.34E-07  2.24E-05  0.00E+00  0.00E+00  3.25E-06  5.43E-04  8.98E-03  0.02579
   1294.    7.728  2.78E-06  4.66E-04  1.85E-07  3.10E-05  0.00E+00  0.00E+00  2.97E-06  4.97E-04  8.98E-03  0.03572
   1296.    7.716  2.45E-06  4.12E-04  8.39E-08  1.41E-05  0.00E+00  0.00E+00  2.54E-06  4.26E-04  8.99E-03  0.01622
   1298.    7.704  2.46E-06  4.15E-04  2.39E-07  4.03E-05  0.00E+00  0.00E+00  2.70E-06  4.55E-04  9.00E-03  0.04670
   1300.    7.692  2.44E-06  4.12E-04  3.65E-07  6.16E-05  0.00E+00  0.00E+00  2.80E-06  4.73E-04  9.00E-03  0.07131
  iv         1305
1                                             RADIANCE(WATTS/CM2-STER-XXX)
0  FREQ   WAVLEN    PATH THERMAL      SURFACE EMISSION    SURFACE REFLECTED     TOTAL RADIANCE   INTEGRAL    TOTAL
  (CM-1) (MICRN)    (CM-1)   (MICRN)    (CM-1)   (MICRN)    (CM-1)   (MICRN)    (CM-1)   (MICRN)    (CM-1)   TRANS

   1302.    7.680  1.96E-06  3.32E-04  1.89E-07  3.21E-05  0.00E+00  0.00E+00  2.15E-06  3.64E-04  9.01E-03  0.03717
   1304.    7.669  1.36E-06  2.31E-04  5.14E-08  8.74E-06  0.00E+00  0.00E+00  1.41E-06  2.39E-04  9.01E-03  0.01013
   1306.    7.657  1.49E-06  2.54E-04  5.92E-09  1.01E-06  0.00E+00  0.00E+00  1.50E-06  2.55E-04  9.01E-03  0.00117
   1308.    7.645  2.40E-06  4.10E-04  2.66E-09  4.56E-07  0.00E+00  0.00E+00  2.40E-06  4.11E-04  9.02E-03  0.00053
   1310.    7.634  2.75E-06  4.71E-04  3.99E-09  6.85E-07  0.00E+00  0.00E+00  2.75E-06  4.72E-04  9.02E-03  0.00080
   1312.    7.622  2.20E-06  3.80E-04  1.47E-09  2.53E-07  0.00E+00  0.00E+00  2.21E-06  3.80E-04  9.03E-03  0.00030
   1314.    7.610  1.92E-06  3.32E-04  1.31E-15  2.26E-13  0.00E+00  0.00E+00  1.92E-06  3.32E-04  9.03E-03  0.00000
   1316.    7.599  1.93E-06  3.35E-04  3.57E-15  6.18E-13  0.00E+00  0.00E+00  1.93E-06  3.35E-04  9.03E-03  0.00000
   1318.    7.587  1.71E-06  2.98E-04  8.26E-14  1.43E-11  0.00E+00  0.00E+00  1.71E-06  2.98E-04  9.04E-03  0.00000
   1320.    7.576  1.79E-06  3.11E-04  2.84E-11  4.94E-09  0.00E+00  0.00E+00  1.79E-06  3.11E-04  9.04E-03  0.00001
   1322.    7.564  2.16E-06  3.78E-04  2.27E-10  3.96E-08  0.00E+00  0.00E+00  2.16E-06  3.78E-04  9.04E-03  0.00005
   1324.    7.553  2.71E-06  4.74E-04  9.08E-09  1.59E-06  0.00E+00  0.00E+00  2.71E-06  4.76E-04  9.05E-03  0.00189
   1326.    7.541  2.60E-06  4.57E-04  1.27E-08  2.22E-06  0.00E+00  0.00E+00  2.61E-06  4.59E-04  9.06E-03  0.00264
   1328.    7.530  2.36E-06  4.17E-04  3.34E-09  5.88E-07  0.00E+00  0.00E+00  2.37E-06  4.18E-04  9.06E-03  0.00070
   1330.    7.519  2.57E-06  4.55E-04  7.79E-09  1.38E-06  0.00E+00  0.00E+00  2.58E-06  4.56E-04  9.07E-03  0.00165
   1332.    7.508  2.23E-06  3.96E-04  7.99E-09  1.42E-06  0.00E+00  0.00E+00  2.24E-06  3.97E-04  9.07E-03  0.00169
   1334.    7.496  2.23E-06  3.96E-04  4.55E-10  8.10E-08  0.00E+00  0.00E+00  2.23E-06  3.96E-04  9.07E-03  0.00010
   1336.    7.485  1.91E-06  3.40E-04  6.59E-11  1.18E-08  0.00E+00  0.00E+00  1.91E-06  3.40E-04  9.08E-03  0.00001
   1338.    7.474  1.23E-06  2.20E-04  1.54E-20  2.76E-18  0.00E+00  0.00E+00  1.23E-06  2.20E-04  9.08E-03  0.00000
   1340.    7.463  1.21E-06  2.18E-04  3.22E-18  5.77E-16  0.00E+00  0.00E+00  1.21E-06  2.18E-04  9.08E-03  0.00000
   1342.    7.452  1.52E-06  2.74E-04  8.86E-12  1.60E-09  0.00E+00  0.00E+00  1.52E-06  2.74E-04  9.09E-03  0.00000
   1344.    7.440  2.15E-06  3.88E-04  3.00E-10  5.42E-08  0.00E+00  0.00E+00  2.15E-06  3.88E-04  9.09E-03  0.00007
   1346.    7.429  2.17E-06  3.94E-04  4.43E-10  8.03E-08  0.00E+00  0.00E+00  2.17E-06  3.94E-04  9.09E-03  0.00010
   1348.    7.418  1.75E-06  3.18E-04  9.74E-11  1.77E-08  0.00E+00  0.00E+00  1.75E-06  3.18E-04  9.10E-03  0.00002
   1350.    7.407  1.82E-06  3.32E-04  4.55E-11  8.29E-09  0.00E+00  0.00E+00  1.82E-06  3.32E-04  9.10E-03  0.00001
   1352.    7.396  1.98E-06  3.61E-04  7.44E-11  1.36E-08  0.00E+00  0.00E+00  1.98E-06  3.61E-04  9.11E-03  0.00002
   1354.    7.386  1.77E-06  3.25E-04  2.07E-11  3.79E-09  0.00E+00  0.00E+00  1.77E-06  3.25E-04  9.11E-03  0.00000
   1356.    7.375  1.73E-06  3.18E-04  1.09E-12  2.00E-10  0.00E+00  0.00E+00  1.73E-06  3.18E-04  9.11E-03  0.00000
   1358.    7.364  1.87E-06  3.45E-04  8.97E-13  1.65E-10  0.00E+00  0.00E+00  1.87E-06  3.45E-04  9.12E-03  0.00000
   1360.    7.353  1.61E-06  2.97E-04  1.38E-14  2.56E-12  0.00E+00  0.00E+00  1.61E-06  2.97E-04  9.12E-03  0.00000
   1362.    7.342  1.19E-06  2.21E-04  4.00E-22  7.42E-20  0.00E+00  0.00E+00  1.19E-06  2.21E-04  9.12E-03  0.00000
   1364.    7.331  1.37E-06  2.55E-04  7.12E-17  1.32E-14  0.00E+00  0.00E+00  1.37E-06  2.55E-04  9.12E-03  0.00000
   1366.    7.321  1.84E-06  3.43E-04  4.15E-16  7.74E-14  0.00E+00  0.00E+00  1.84E-06  3.43E-04  9.13E-03  0.00000
   1368.    7.310  1.61E-06  3.01E-04  3.57E-16  6.68E-14  0.00E+00  0.00E+00  1.61E-06  3.01E-04  9.13E-03  0.00000
   1370.    7.299  1.54E-06  2.89E-04  8.45E-17  1.59E-14  0.00E+00  0.00E+00  1.54E-06  2.89E-04  9.13E-03  0.00000
   1372.    7.289  1.44E-06  2.71E-04  1.23E-20  2.31E-18  0.00E+00  0.00E+00  1.44E-06  2.71E-04  9.14E-03  0.00000
   1374.    7.278  1.05E-06  1.97E-04  4.88E-29  9.21E-27  0.00E+00  0.00E+00  1.05E-06  1.97E-04  9.14E-03  0.00000
   1376.    7.267  1.24E-06  2.34E-04  4.51E-23  8.55E-21  0.00E+00  0.00E+00  1.24E-06  2.34E-04  9.14E-03  0.00000
   1378.    7.257  1.50E-06  2.84E-04  2.56E-19  4.86E-17  0.00E+00  0.00E+00  1.50E-06  2.84E-04  9.15E-03  0.00000
   1380.    7.246  1.64E-06  3.13E-04  8.41E-16  1.60E-13  0.00E+00  0.00E+00  1.64E-06  3.13E-04  9.15E-03  0.00000
   1382.    7.236  1.83E-06  3.50E-04  1.31E-15  2.51E-13  0.00E+00  0.00E+00  1.83E-06  3.50E-04  9.15E-03  0.00000
   1384.    7.225  1.74E-06  3.34E-04  2.74E-16  5.25E-14  0.00E+00  0.00E+00  1.74E-06  3.34E-04  9.16E-03  0.00000
   1386.    7.215  1.28E-06  2.45E-04  1.16E-18  2.22E-16  0.00E+00  0.00E+00  1.28E-06  2.45E-04  9.16E-03  0.00000
   1388.    7.205  1.07E-06  2.07E-04  1.33E-23  2.56E-21  0.00E+00  0.00E+00  1.07E-06  2.07E-04  9.16E-03  0.00000
   1390.    7.194  1.37E-06  2.65E-04  4.44E-24  8.57E-22  0.00E+00  0.00E+00  1.37E-06  2.65E-04  9.16E-03  0.00000
   1392.    7.184  1.33E-06  2.58E-04  1.85E-28  3.59E-26  0.00E+00  0.00E+00  1.33E-06  2.58E-04  9.17E-03  0.00000
   1394.    7.174  9.58E-07  1.86E-04  6.84E-29  1.33E-26  0.00E+00  0.00E+00  9.58E-07  1.86E-04  9.17E-03  0.00000
   1396.    7.163  9.41E-07  1.83E-04  2.28E-29  4.44E-27  0.00E+00  0.00E+00  9.41E-07  1.83E-04  9.17E-03  0.00000
   1398.    7.153  9.51E-07  1.86E-04  1.76E-24  3.43E-22  0.00E+00  0.00E+00  9.51E-07  1.86E-04  9.17E-03  0.00000
   1400.    7.143  1.04E-06  2.05E-04  1.76E-24  3.44E-22  0.00E+00  0.00E+00  1.04E-06  2.05E-04  9.17E-03  0.00000
  iv         1405
1                                             RADIANCE(WATTS/CM2-STER-XXX)
0  FREQ   WAVLEN    PATH THERMAL      SURFACE EMISSION    SURFACE REFLECTED     TOTAL RADIANCE   INTEGRAL    TOTAL
  (CM-1) (MICRN)    (CM-1)   (MICRN)    (CM-1)   (MICRN)    (CM-1)   (MICRN)    (CM-1)   (MICRN)    (CM-1)   TRANS

   1402.    7.133  1.36E-06  2.66E-04  1.30E-28  2.55E-26  0.00E+00  0.00E+00  1.36E-06  2.66E-04  9.18E-03  0.00000
   1404.    7.123  1.15E-06  2.28E-04  6.07E-19  1.20E-16  0.00E+00  0.00E+00  1.15E-06  2.28E-04  9.18E-03  0.00000
   1406.    7.112  1.29E-06  2.56E-04  6.15E-19  1.22E-16  0.00E+00  0.00E+00  1.29E-06  2.56E-04  9.18E-03  0.00000
   1408.    7.102  1.57E-06  3.12E-04  2.35E-20  4.65E-18  0.00E+00  0.00E+00  1.57E-06  3.12E-04  9.18E-03  0.00000
   1410.    7.092  1.40E-06  2.78E-04  8.04E-21  1.60E-18  0.00E+00  0.00E+00  1.40E-06  2.78E-04  9.19E-03  0.00000
   1412.    7.082  1.33E-06  2.65E-04  1.33E-22  2.65E-20  0.00E+00  0.00E+00  1.33E-06  2.65E-04  9.19E-03  0.00000
   1414.    7.072  1.38E-06  2.75E-04  5.18E-23  1.04E-20  0.00E+00  0.00E+00  1.38E-06  2.75E-04  9.19E-03  0.00000
   1416.    7.062  1.08E-06  2.16E-04  8.26E-26  1.66E-23  0.00E+00  0.00E+00  1.08E-06  2.16E-04  9.19E-03  0.00000
   1418.    7.052  7.58E-07  1.52E-04  3.66E-43  7.35E-41  0.00E+00  0.00E+00  7.58E-07  1.52E-04  9.20E-03  0.00000
   1420.    7.042  7.34E-07  1.48E-04  0.00E+00  0.00E+00  0.00E+00  0.00E+00  7.34E-07  1.48E-04  9.20E-03  0.00000
   1422.    7.032  9.46E-07  1.91E-04  1.71E-32  3.46E-30  0.00E+00  0.00E+00  9.46E-07  1.91E-04  9.20E-03  0.00000
   1424.    7.022  9.33E-07  1.89E-04  5.13E-32  1.04E-29  0.00E+00  0.00E+00  9.33E-07  1.89E-04  9.20E-03  0.00000
   1426.    7.013  1.15E-06  2.34E-04  1.88E-32  3.83E-30  0.00E+00  0.00E+00  1.15E-06  2.34E-04  9.20E-03  0.00000
   1428.    7.003  1.06E-06  2.16E-04  2.90E-27  5.92E-25  0.00E+00  0.00E+00  1.06E-06  2.16E-04  9.21E-03  0.00000
   1430.    6.993  8.78E-07  1.80E-04  8.71E-27  1.78E-24  0.00E+00  0.00E+00  8.78E-07  1.80E-04  9.21E-03  0.00000
   1432.    6.983  9.85E-07  2.02E-04  2.90E-27  5.96E-25  0.00E+00  0.00E+00  9.85E-07  2.02E-04  9.21E-03  0.00000
   1434.    6.974  9.23E-07  1.90E-04  4.62E-42  9.50E-40  0.00E+00  0.00E+00  9.23E-07  1.90E-04  9.21E-03  0.00000
   1436.    6.964  6.80E-07  1.40E-04  0.00E+00  0.00E+00  0.00E+00  0.00E+00  6.80E-07  1.40E-04  9.21E-03  0.00000
   1438.    6.954  8.12E-07  1.68E-04  3.13E-39  6.48E-37  0.00E+00  0.00E+00  8.12E-07  1.68E-04  9.21E-03  0.00000
   1440.    6.944  1.16E-06  2.41E-04  7.84E-30  1.62E-27  0.00E+00  0.00E+00  1.16E-06  2.41E-04  9.22E-03  0.00000
   1442.    6.935  1.28E-06  2.66E-04  3.54E-28  7.37E-26  0.00E+00  0.00E+00  1.28E-06  2.66E-04  9.22E-03  0.00000
   1444.    6.925  1.24E-06  2.58E-04  4.29E-28  8.95E-26  0.00E+00  0.00E+00  1.24E-06  2.58E-04  9.22E-03  0.00000
   1446.    6.916  9.55E-07  2.00E-04  5.09E-29  1.06E-26  0.00E+00  0.00E+00  9.55E-07  2.00E-04  9.22E-03  0.00000
   1448.    6.906  8.10E-07  1.70E-04  1.67E-29  3.50E-27  0.00E+00  0.00E+00  8.10E-07  1.70E-04  9.23E-03  0.00000
   1450.    6.897  9.63E-07  2.02E-04  5.57E-30  1.17E-27  0.00E+00  0.00E+00  9.63E-07  2.02E-04  9.23E-03  0.00000
   1452.    6.887  9.01E-07  1.90E-04  1.40E-45  2.96E-43  0.00E+00  0.00E+00  9.01E-07  1.90E-04  9.23E-03  0.00000
   1454.    6.878  7.55E-07  1.60E-04  0.00E+00  0.00E+00  0.00E+00  0.00E+00  7.55E-07  1.60E-04  9.23E-03  0.00000
   1456.    6.868  5.10E-07  1.08E-04  0.00E+00  0.00E+00  0.00E+00  0.00E+00  5.10E-07  1.08E-04  9.23E-03  0.00000
   1458.    6.859  4.60E-07  9.79E-05  0.00E+00  0.00E+00  0.00E+00  0.00E+00  4.60E-07  9.79E-05  9.23E-03  0.00000
   1460.    6.849  7.02E-07  1.50E-04  0.00E+00  0.00E+00  0.00E+00  0.00E+00  7.02E-07  1.50E-04  9.23E-03  0.00000
   1462.    6.840  8.47E-07  1.81E-04  0.00E+00  0.00E+00  0.00E+00  0.00E+00  8.47E-07  1.81E-04  9.24E-03  0.00000
   1464.    6.831  6.54E-07  1.40E-04  2.90E-38  6.23E-36  0.00E+00  0.00E+00  6.54E-07  1.40E-04  9.24E-03  0.00000
   1466.    6.821  6.90E-07  1.48E-04  2.90E-38  6.24E-36  0.00E+00  0.00E+00  6.90E-07  1.48E-04  9.24E-03  0.00000
   1468.    6.812  8.73E-07  1.88E-04  0.00E+00  0.00E+00  0.00E+00  0.00E+00  8.73E-07  1.88E-04  9.24E-03  0.00000
   1470.    6.803  7.67E-07  1.66E-04  0.00E+00  0.00E+00  0.00E+00  0.00E+00  7.67E-07  1.66E-04  9.24E-03  0.00000
   1472.    6.793  5.15E-07  1.12E-04  0.00E+00  0.00E+00  0.00E+00  0.00E+00  5.15E-07  1.12E-04  9.24E-03  0.00000
   1474.    6.784  4.92E-07  1.07E-04  0.00E+00  0.00E+00  0.00E+00  0.00E+00  4.92E-07  1.07E-04  9.24E-03  0.00000
   1476.    6.775  5.96E-07  1.30E-04  0.00E+00  0.00E+00  0.00E+00  0.00E+00  5.96E-07  1.30E-04  9.24E-03  0.00000
   1478.    6.766  8.21E-07  1.79E-04  0.00E+00  0.00E+00  0.00E+00  0.00E+00  8.21E-07  1.79E-04  9.25E-03  0.00000
   1480.    6.757  8.55E-07  1.87E-04  1.40E-45  3.07E-43  0.00E+00  0.00E+00  8.55E-07  1.87E-04  9.25E-03  0.00000
   1482.    6.748  8.16E-07  1.79E-04  1.40E-45  3.08E-43  0.00E+00  0.00E+00  8.16E-07  1.79E-04  9.25E-03  0.00000
   1484.    6.739  8.67E-07  1.91E-04  0.00E+00  0.00E+00  0.00E+00  0.00E+00  8.67E-07  1.91E-04  9.25E-03  0.00000
   1486.    6.729  6.67E-07  1.47E-04  0.00E+00  0.00E+00  0.00E+00  0.00E+00  6.67E-07  1.47E-04  9.25E-03  0.00000
   1488.    6.720  5.11E-07  1.13E-04  0.00E+00  0.00E+00  0.00E+00  0.00E+00  5.11E-07  1.13E-04  9.25E-03  0.00000
   1490.    6.711  4.87E-07  1.08E-04  0.00E+00  0.00E+00  0.00E+00  0.00E+00  4.87E-07  1.08E-04  9.25E-03  0.00000
   1492.    6.702  6.37E-07  1.42E-04  0.00E+00  0.00E+00  0.00E+00  0.00E+00  6.37E-07  1.42E-04  9.26E-03  0.00000
   1494.    6.693  6.83E-07  1.52E-04  0.00E+00  0.00E+00  0.00E+00  0.00E+00  6.83E-07  1.52E-04  9.26E-03  0.00000
   1496.    6.684  4.96E-07  1.11E-04  0.00E+00  0.00E+00  0.00E+00  0.00E+00  4.96E-07  1.11E-04  9.26E-03  0.00000
   1498.    6.676  4.47E-07  1.00E-04  0.00E+00  0.00E+00  0.00E+00  0.00E+00  4.47E-07  1.00E-04  9.26E-03  0.00000
   1500.    6.667  5.31E-07  1.19E-04  0.00E+00  0.00E+00  0.00E+00  0.00E+00  5.31E-07  1.19E-04  9.26E-03  0.00000
  iv         1505
1                                             RADIANCE(WATTS/CM2-STER-XXX)
0  FREQ   WAVLEN    PATH THERMAL      SURFACE EMISSION    SURFACE REFLECTED     TOTAL RADIANCE   INTEGRAL    TOTAL
  (CM-1) (MICRN)    (CM-1)   (MICRN)    (CM-1)   (MICRN)    (CM-1)   (MICRN)    (CM-1)   (MICRN)    (CM-1)   TRANS

   1502.    6.658  6.07E-07  1.37E-04  0.00E+00  0.00E+00  0.00E+00  0.00E+00  6.07E-07  1.37E-04  9.26E-03  0.00000
   1504.    6.649  5.20E-07  1.18E-04  0.00E+00  0.00E+00  0.00E+00  0.00E+00  5.20E-07  1.18E-04  9.26E-03  0.00000
   1506.    6.640  3.36E-07  7.63E-05  0.00E+00  0.00E+00  0.00E+00  0.00E+00  3.36E-07  7.63E-05  9.26E-03  0.00000
   1508.    6.631  3.37E-07  7.67E-05  0.00E+00  0.00E+00  0.00E+00  0.00E+00  3.37E-07  7.67E-05  9.26E-03  0.00000
   1510.    6.623  4.27E-07  9.73E-05  0.00E+00  0.00E+00  0.00E+00  0.00E+00  4.27E-07  9.73E-05  9.26E-03  0.00000
   1512.    6.614  4.96E-07  1.13E-04  0.00E+00  0.00E+00  0.00E+00  0.00E+00  4.96E-07  1.13E-04  9.27E-03  0.00000
   1514.    6.605  5.28E-07  1.21E-04  0.00E+00  0.00E+00  0.00E+00  0.00E+00  5.28E-07  1.21E-04  9.27E-03  0.00000
   1516.    6.596  4.25E-07  9.77E-05  0.00E+00  0.00E+00  0.00E+00  0.00E+00  4.25E-07  9.77E-05  9.27E-03  0.00000
   1518.    6.588  4.07E-07  9.39E-05  0.00E+00  0.00E+00  0.00E+00  0.00E+00  4.07E-07  9.39E-05  9.27E-03  0.00000
   1520.    6.579  3.73E-07  8.62E-05  0.00E+00  0.00E+00  0.00E+00  0.00E+00  3.73E-07  8.62E-05  9.27E-03  0.00000
   1522.    6.570  3.31E-07  7.67E-05  0.00E+00  0.00E+00  0.00E+00  0.00E+00  3.31E-07  7.67E-05  9.27E-03  0.00000
   1524.    6.562  3.83E-07  8.90E-05  0.00E+00  0.00E+00  0.00E+00  0.00E+00  3.83E-07  8.90E-05  9.27E-03  0.00000
   1526.    6.553  4.26E-07  9.91E-05  0.00E+00  0.00E+00  0.00E+00  0.00E+00  4.26E-07  9.91E-05  9.27E-03  0.00000
   1528.    6.545  4.72E-07  1.10E-04  0.00E+00  0.00E+00  0.00E+00  0.00E+00  4.72E-07  1.10E-04  9.27E-03  0.00000
   1530.    6.536  5.30E-07  1.24E-04  0.00E+00  0.00E+00  0.00E+00  0.00E+00  5.30E-07  1.24E-04  9.27E-03  0.00000
   1532.    6.527  4.44E-07  1.04E-04  0.00E+00  0.00E+00  0.00E+00  0.00E+00  4.44E-07  1.04E-04  9.27E-03  0.00000
   1534.    6.519  3.75E-07  8.83E-05  0.00E+00  0.00E+00  0.00E+00  0.00E+00  3.75E-07  8.83E-05  9.28E-03  0.00000
   1536.    6.510  4.55E-07  1.07E-04  0.00E+00  0.00E+00  0.00E+00  0.00E+00  4.55E-07  1.07E-04  9.28E-03  0.00000
   1538.    6.502  3.47E-07  8.20E-05  0.00E+00  0.00E+00  0.00E+00  0.00E+00  3.47E-07  8.20E-05  9.28E-03  0.00000
   1540.    6.494  2.49E-07  5.89E-05  0.00E+00  0.00E+00  0.00E+00  0.00E+00  2.49E-07  5.89E-05  9.28E-03  0.00000
   1542.    6.485  2.82E-07  6.70E-05  0.00E+00  0.00E+00  0.00E+00  0.00E+00  2.82E-07  6.70E-05  9.28E-03  0.00000
   1544.    6.477  3.49E-07  8.32E-05  0.00E+00  0.00E+00  0.00E+00  0.00E+00  3.49E-07  8.32E-05  9.28E-03  0.00000
   1546.    6.468  4.40E-07  1.05E-04  0.00E+00  0.00E+00  0.00E+00  0.00E+00  4.40E-07  1.05E-04  9.28E-03  0.00000
   1548.    6.460  5.16E-07  1.24E-04  0.00E+00  0.00E+00  0.00E+00  0.00E+00  5.16E-07  1.24E-04  9.28E-03  0.00000
   1550.    6.452  4.61E-07  1.11E-04  0.00E+00  0.00E+00  0.00E+00  0.00E+00  4.61E-07  1.11E-04  9.28E-03  0.00000
   1552.    6.443  4.50E-07  1.08E-04  0.00E+00  0.00E+00  0.00E+00  0.00E+00  4.50E-07  1.08E-04  9.28E-03  0.00000
   1554.    6.435  3.75E-07  9.06E-05  0.00E+00  0.00E+00  0.00E+00  0.00E+00  3.75E-07  9.06E-05  9.28E-03  0.00000
   1556.    6.427  3.27E-07  7.91E-05  0.00E+00  0.00E+00  0.00E+00  0.00E+00  3.27E-07  7.91E-05  9.28E-03  0.00000
   1558.    6.418  2.40E-07  5.83E-05  0.00E+00  0.00E+00  0.00E+00  0.00E+00  2.40E-07  5.83E-05  9.28E-03  0.00000
   1560.    6.410  2.47E-07  6.02E-05  0.00E+00  0.00E+00  0.00E+00  0.00E+00  2.47E-07  6.02E-05  9.28E-03  0.00000
   1562.    6.402  3.88E-07  9.46E-05  0.00E+00  0.00E+00  0.00E+00  0.00E+00  3.88E-07  9.46E-05  9.29E-03  0.00000
   1564.    6.394  4.15E-07  1.02E-04  0.00E+00  0.00E+00  0.00E+00  0.00E+00  4.15E-07  1.02E-04  9.29E-03  0.00000
   1566.    6.386  4.42E-07  1.08E-04  0.00E+00  0.00E+00  0.00E+00  0.00E+00  4.42E-07  1.08E-04  9.29E-03  0.00000
   1568.    6.378  4.04E-07  9.92E-05  0.00E+00  0.00E+00  0.00E+00  0.00E+00  4.04E-07  9.92E-05  9.29E-03  0.00000
   1570.    6.369  3.41E-07  8.41E-05  0.00E+00  0.00E+00  0.00E+00  0.00E+00  3.41E-07  8.41E-05  9.29E-03  0.00000
   1572.    6.361  4.56E-07  1.13E-04  0.00E+00  0.00E+00  0.00E+00  0.00E+00  4.56E-07  1.13E-04  9.29E-03  0.00000
   1574.    6.353  4.20E-07  1.04E-04  0.00E+00  0.00E+00  0.00E+00  0.00E+00  4.20E-07  1.04E-04  9.29E-03  0.00000
   1576.    6.345  2.89E-07  7.17E-05  0.00E+00  0.00E+00  0.00E+00  0.00E+00  2.89E-07  7.17E-05  9.29E-03  0.00000
   1578.    6.337  3.75E-07  9.33E-05  0.00E+00  0.00E+00  0.00E+00  0.00E+00  3.75E-07  9.33E-05  9.29E-03  0.00000
   1580.    6.329  5.50E-07  1.37E-04  0.00E+00  0.00E+00  0.00E+00  0.00E+00  5.50E-07  1.37E-04  9.29E-03  0.00000
   1582.    6.321  6.23E-07  1.56E-04  1.28E-41  3.21E-39  0.00E+00  0.00E+00  6.23E-07  1.56E-04  9.29E-03  0.00000
   1584.    6.313  6.76E-07  1.70E-04  1.59E-36  3.99E-34  0.00E+00  0.00E+00  6.76E-07  1.70E-04  9.30E-03  0.00000
   1586.    6.305  7.08E-07  1.78E-04  7.61E-35  1.92E-32  0.00E+00  0.00E+00  7.08E-07  1.78E-04  9.30E-03  0.00000
   1588.    6.297  6.83E-07  1.72E-04  1.88E-34  4.74E-32  0.00E+00  0.00E+00  6.83E-07  1.72E-04  9.30E-03  0.00000
   1590.    6.289  6.00E-07  1.52E-04  5.76E-35  1.46E-32  0.00E+00  0.00E+00  6.00E-07  1.52E-04  9.30E-03  0.00000
   1592.    6.281  5.69E-07  1.44E-04  1.27E-34  3.21E-32  0.00E+00  0.00E+00  5.69E-07  1.44E-04  9.30E-03  0.00000
   1594.    6.274  5.20E-07  1.32E-04  3.79E-34  9.63E-32  0.00E+00  0.00E+00  5.20E-07  1.32E-04  9.30E-03  0.00000
   1596.    6.266  5.44E-07  1.39E-04  1.09E-32  2.78E-30  0.00E+00  0.00E+00  5.44E-07  1.39E-04  9.30E-03  0.00000
   1598.    6.258  6.68E-07  1.71E-04  1.20E-31  3.05E-29  0.00E+00  0.00E+00  6.68E-07  1.71E-04  9.30E-03  0.00000
   1600.    6.250  6.33E-07  1.62E-04  9.82E-32  2.51E-29  0.00E+00  0.00E+00  6.33E-07  1.62E-04  9.31E-03  0.00000
  iv         1605
1                                             RADIANCE(WATTS/CM2-STER-XXX)
0  FREQ   WAVLEN    PATH THERMAL      SURFACE EMISSION    SURFACE REFLECTED     TOTAL RADIANCE   INTEGRAL    TOTAL
  (CM-1) (MICRN)    (CM-1)   (MICRN)    (CM-1)   (MICRN)    (CM-1)   (MICRN)    (CM-1)   (MICRN)    (CM-1)   TRANS

   1602.    6.242  5.15E-07  1.32E-04  1.02E-34  2.62E-32  0.00E+00  0.00E+00  5.15E-07  1.32E-04  9.31E-03  0.00000
   1604.    6.234  5.54E-07  1.42E-04  7.03E-37  1.81E-34  0.00E+00  0.00E+00  5.54E-07  1.42E-04  9.31E-03  0.00000
   1606.    6.227  5.53E-07  1.43E-04  6.59E-37  1.70E-34  0.00E+00  0.00E+00  5.53E-07  1.43E-04  9.31E-03  0.00000
   1608.    6.219  4.46E-07  1.15E-04  9.11E-43  2.36E-40  0.00E+00  0.00E+00  4.46E-07  1.15E-04  9.31E-03  0.00000
   1610.    6.211  4.68E-07  1.21E-04  1.21E-43  3.12E-41  0.00E+00  0.00E+00  4.68E-07  1.21E-04  9.31E-03  0.00000
   1612.    6.203  5.23E-07  1.36E-04  0.00E+00  0.00E+00  0.00E+00  0.00E+00  5.23E-07  1.36E-04  9.31E-03  0.00000
   1614.    6.196  4.35E-07  1.13E-04  0.00E+00  0.00E+00  0.00E+00  0.00E+00  4.35E-07  1.13E-04  9.31E-03  0.00000
   1616.    6.188  2.75E-07  7.18E-05  6.44E-37  1.68E-34  0.00E+00  0.00E+00  2.75E-07  7.18E-05  9.31E-03  0.00000
   1618.    6.180  3.00E-07  7.85E-05  6.44E-37  1.69E-34  0.00E+00  0.00E+00  3.00E-07  7.85E-05  9.31E-03  0.00000
   1620.    6.173  4.06E-07  1.07E-04  0.00E+00  0.00E+00  0.00E+00  0.00E+00  4.06E-07  1.07E-04  9.31E-03  0.00000
   1622.    6.165  3.45E-07  9.08E-05  0.00E+00  0.00E+00  0.00E+00  0.00E+00  3.45E-07  9.08E-05  9.32E-03  0.00000
   1624.    6.158  2.90E-07  7.64E-05  0.00E+00  0.00E+00  0.00E+00  0.00E+00  2.90E-07  7.64E-05  9.32E-03  0.00000
   1626.    6.150  3.35E-07  8.86E-05  0.00E+00  0.00E+00  0.00E+00  0.00E+00  3.35E-07  8.86E-05  9.32E-03  0.00000
   1628.    6.143  3.31E-07  8.77E-05  0.00E+00  0.00E+00  0.00E+00  0.00E+00  3.31E-07  8.77E-05  9.32E-03  0.00000
   1630.    6.135  4.27E-07  1.13E-04  0.00E+00  0.00E+00  0.00E+00  0.00E+00  4.27E-07  1.13E-04  9.32E-03  0.00000
   1632.    6.127  4.23E-07  1.13E-04  0.00E+00  0.00E+00  0.00E+00  0.00E+00  4.23E-07  1.13E-04  9.32E-03  0.00000
   1634.    6.120  2.81E-07  7.49E-05  0.00E+00  0.00E+00  0.00E+00  0.00E+00  2.81E-07  7.49E-05  9.32E-03  0.00000
   1636.    6.112  2.03E-07  5.44E-05  0.00E+00  0.00E+00  0.00E+00  0.00E+00  2.03E-07  5.44E-05  9.32E-03  0.00000
   1638.    6.105  2.69E-07  7.21E-05  0.00E+00  0.00E+00  0.00E+00  0.00E+00  2.69E-07  7.21E-05  9.32E-03  0.00000
   1640.    6.098  3.53E-07  9.50E-05  0.00E+00  0.00E+00  0.00E+00  0.00E+00  3.53E-07  9.50E-05  9.32E-03  0.00000
   1642.    6.090  3.80E-07  1.02E-04  0.00E+00  0.00E+00  0.00E+00  0.00E+00  3.80E-07  1.02E-04  9.32E-03  0.00000
   1644.    6.083  3.17E-07  8.57E-05  0.00E+00  0.00E+00  0.00E+00  0.00E+00  3.17E-07  8.57E-05  9.32E-03  0.00000
   1646.    6.075  2.07E-07  5.60E-05  0.00E+00  0.00E+00  0.00E+00  0.00E+00  2.07E-07  5.60E-05  9.32E-03  0.00000
   1648.    6.068  2.18E-07  5.93E-05  0.00E+00  0.00E+00  0.00E+00  0.00E+00  2.18E-07  5.93E-05  9.32E-03  0.00000
   1650.    6.061  2.54E-07  6.91E-05  0.00E+00  0.00E+00  0.00E+00  0.00E+00  2.54E-07  6.91E-05  9.32E-03  0.00000
   1652.    6.053  1.78E-07  4.86E-05  0.00E+00  0.00E+00  0.00E+00  0.00E+00  1.78E-07  4.86E-05  9.32E-03  0.00000
   1654.    6.046  1.68E-07  4.60E-05  0.00E+00  0.00E+00  0.00E+00  0.00E+00  1.68E-07  4.60E-05  9.32E-03  0.00000
   1656.    6.039  2.73E-07  7.47E-05  0.00E+00  0.00E+00  0.00E+00  0.00E+00  2.73E-07  7.47E-05  9.32E-03  0.00000
   1658.    6.031  3.72E-07  1.02E-04  0.00E+00  0.00E+00  0.00E+00  0.00E+00  3.72E-07  1.02E-04  9.33E-03  0.00000
   1660.    6.024  3.66E-07  1.01E-04  0.00E+00  0.00E+00  0.00E+00  0.00E+00  3.66E-07  1.01E-04  9.33E-03  0.00000
   1662.    6.017  2.68E-07  7.41E-05  0.00E+00  0.00E+00  0.00E+00  0.00E+00  2.68E-07  7.41E-05  9.33E-03  0.00000
   1664.    6.010  3.02E-07  8.37E-05  0.00E+00  0.00E+00  0.00E+00  0.00E+00  3.02E-07  8.37E-05  9.33E-03  0.00000
   1666.    6.002  3.60E-07  9.99E-05  0.00E+00  0.00E+00  0.00E+00  0.00E+00  3.60E-07  9.99E-05  9.33E-03  0.00000
   1668.    5.995  2.57E-07  7.14E-05  0.00E+00  0.00E+00  0.00E+00  0.00E+00  2.57E-07  7.14E-05  9.33E-03  0.00000
   1670.    5.988  1.96E-07  5.48E-05  0.00E+00  0.00E+00  0.00E+00  0.00E+00  1.96E-07  5.48E-05  9.33E-03  0.00000
   1672.    5.981  2.42E-07  6.75E-05  0.00E+00  0.00E+00  0.00E+00  0.00E+00  2.42E-07  6.75E-05  9.33E-03  0.00000
   1674.    5.974  2.47E-07  6.93E-05  0.00E+00  0.00E+00  0.00E+00  0.00E+00  2.47E-07  6.93E-05  9.33E-03  0.00000
   1676.    5.967  2.29E-07  6.43E-05  0.00E+00  0.00E+00  0.00E+00  0.00E+00  2.29E-07  6.43E-05  9.33E-03  0.00000
   1678.    5.959  2.90E-07  8.17E-05  0.00E+00  0.00E+00  0.00E+00  0.00E+00  2.90E-07  8.17E-05  9.33E-03  0.00000
   1680.    5.952  2.71E-07  7.64E-05  0.00E+00  0.00E+00  0.00E+00  0.00E+00  2.71E-07  7.64E-05  9.33E-03  0.00000
   1682.    5.945  2.29E-07  6.47E-05  0.00E+00  0.00E+00  0.00E+00  0.00E+00  2.29E-07  6.47E-05  9.33E-03  0.00000
   1684.    5.938  1.62E-07  4.58E-05  0.00E+00  0.00E+00  0.00E+00  0.00E+00  1.62E-07  4.58E-05  9.33E-03  0.00000
   1686.    5.931  2.06E-07  5.86E-05  0.00E+00  0.00E+00  0.00E+00  0.00E+00  2.06E-07  5.86E-05  9.33E-03  0.00000
   1688.    5.924  2.54E-07  7.24E-05  0.00E+00  0.00E+00  0.00E+00  0.00E+00  2.54E-07  7.24E-05  9.33E-03  0.00000
   1690.    5.917  2.65E-07  7.57E-05  0.00E+00  0.00E+00  0.00E+00  0.00E+00  2.65E-07  7.57E-05  9.33E-03  0.00000
   1692.    5.910  2.93E-07  8.40E-05  0.00E+00  0.00E+00  0.00E+00  0.00E+00  2.93E-07  8.40E-05  9.33E-03  0.00000
   1694.    5.903  2.33E-07  6.69E-05  0.00E+00  0.00E+00  0.00E+00  0.00E+00  2.33E-07  6.69E-05  9.33E-03  0.00000
   1696.    5.896  1.68E-07  4.85E-05  0.00E+00  0.00E+00  0.00E+00  0.00E+00  1.68E-07  4.85E-05  9.34E-03  0.00000
   1698.    5.889  1.74E-07  5.01E-05  0.00E+00  0.00E+00  0.00E+00  0.00E+00  1.74E-07  5.01E-05  9.34E-03  0.00000
   1700.    5.882  1.42E-07  4.10E-05  0.00E+00  0.00E+00  0.00E+00  0.00E+00  1.42E-07  4.10E-05  9.34E-03  0.00000
  iv         1705
1                                             RADIANCE(WATTS/CM2-STER-XXX)
0  FREQ   WAVLEN    PATH THERMAL      SURFACE EMISSION    SURFACE REFLECTED     TOTAL RADIANCE   INTEGRAL    TOTAL
  (CM-1) (MICRN)    (CM-1)   (MICRN)    (CM-1)   (MICRN)    (CM-1)   (MICRN)    (CM-1)   (MICRN)    (CM-1)   TRANS

   1702.    5.875  1.85E-07  5.36E-05  0.00E+00  0.00E+00  0.00E+00  0.00E+00  1.85E-07  5.36E-05  9.34E-03  0.00000
   1704.    5.869  2.01E-07  5.84E-05  0.00E+00  0.00E+00  0.00E+00  0.00E+00  2.01E-07  5.84E-05  9.34E-03  0.00000
   1706.    5.862  1.93E-07  5.63E-05  0.00E+00  0.00E+00  0.00E+00  0.00E+00  1.93E-07  5.63E-05  9.34E-03  0.00000
   1708.    5.855  2.62E-07  7.65E-05  0.00E+00  0.00E+00  0.00E+00  0.00E+00  2.62E-07  7.65E-05  9.34E-03  0.00000
   1710.    5.848  2.88E-07  8.41E-05  0.00E+00  0.00E+00  0.00E+00  0.00E+00  2.88E-07  8.41E-05  9.34E-03  0.00000
   1712.    5.841  2.88E-07  8.43E-05  0.00E+00  0.00E+00  0.00E+00  0.00E+00  2.88E-07  8.43E-05  9.34E-03  0.00000
   1714.    5.834  2.24E-07  6.58E-05  0.00E+00  0.00E+00  0.00E+00  0.00E+00  2.24E-07  6.58E-05  9.34E-03  0.00000
   1716.    5.828  1.68E-07  4.96E-05  0.00E+00  0.00E+00  0.00E+00  0.00E+00  1.68E-07  4.96E-05  9.34E-03  0.00000
   1718.    5.821  1.61E-07  4.77E-05  0.00E+00  0.00E+00  0.00E+00  0.00E+00  1.61E-07  4.77E-05  9.34E-03  0.00000
   1720.    5.814  2.46E-07  7.29E-05  0.00E+00  0.00E+00  0.00E+00  0.00E+00  2.46E-07  7.29E-05  9.34E-03  0.00000
   1722.    5.807  3.01E-07  8.94E-05  0.00E+00  0.00E+00  0.00E+00  0.00E+00  3.01E-07  8.94E-05  9.34E-03  0.00000
   1724.    5.800  3.27E-07  9.73E-05  0.00E+00  0.00E+00  0.00E+00  0.00E+00  3.27E-07  9.73E-05  9.34E-03  0.00000
   1726.    5.794  3.59E-07  1.07E-04  0.00E+00  0.00E+00  0.00E+00  0.00E+00  3.59E-07  1.07E-04  9.34E-03  0.00000
   1728.    5.787  3.25E-07  9.72E-05  0.00E+00  0.00E+00  0.00E+00  0.00E+00  3.25E-07  9.72E-05  9.34E-03  0.00000
   1730.    5.780  2.45E-07  7.32E-05  0.00E+00  0.00E+00  0.00E+00  0.00E+00  2.45E-07  7.32E-05  9.34E-03  0.00000
   1732.    5.774  1.92E-07  5.77E-05  0.00E+00  0.00E+00  0.00E+00  0.00E+00  1.92E-07  5.77E-05  9.34E-03  0.00000
   1734.    5.767  1.48E-07  4.44E-05  0.00E+00  0.00E+00  0.00E+00  0.00E+00  1.48E-07  4.44E-05  9.34E-03  0.00000
   1736.    5.760  2.00E-07  6.01E-05  0.00E+00  0.00E+00  0.00E+00  0.00E+00  2.00E-07  6.01E-05  9.34E-03  0.00000
   1738.    5.754  2.09E-07  6.33E-05  0.00E+00  0.00E+00  0.00E+00  0.00E+00  2.09E-07  6.33E-05  9.35E-03  0.00000
   1740.    5.747  1.87E-07  5.67E-05  0.00E+00  0.00E+00  0.00E+00  0.00E+00  1.87E-07  5.67E-05  9.35E-03  0.00000
   1742.    5.741  2.28E-07  6.91E-05  0.00E+00  0.00E+00  0.00E+00  0.00E+00  2.28E-07  6.91E-05  9.35E-03  0.00000
   1744.    5.734  2.17E-07  6.60E-05  0.00E+00  0.00E+00  0.00E+00  0.00E+00  2.17E-07  6.60E-05  9.35E-03  0.00000
   1746.    5.727  2.13E-07  6.51E-05  0.00E+00  0.00E+00  0.00E+00  0.00E+00  2.13E-07  6.51E-05  9.35E-03  0.00000
   1748.    5.721  1.84E-07  5.62E-05  0.00E+00  0.00E+00  0.00E+00  0.00E+00  1.84E-07  5.62E-05  9.35E-03  0.00000
   1750.    5.714  1.82E-07  5.58E-05  0.00E+00  0.00E+00  0.00E+00  0.00E+00  1.82E-07  5.58E-05  9.35E-03  0.00000
   1752.    5.708  2.31E-07  7.08E-05  0.00E+00  0.00E+00  0.00E+00  0.00E+00  2.31E-07  7.08E-05  9.35E-03  0.00000
   1754.    5.701  3.06E-07  9.41E-05  0.00E+00  0.00E+00  0.00E+00  0.00E+00  3.06E-07  9.41E-05  9.35E-03  0.00000
   1756.    5.695  2.66E-07  8.20E-05  1.06E-36  3.26E-34  0.00E+00  0.00E+00  2.66E-07  8.20E-05  9.35E-03  0.00000
   1758.    5.688  2.59E-07  8.01E-05  1.06E-36  3.27E-34  0.00E+00  0.00E+00  2.59E-07  8.01E-05  9.35E-03  0.00000
   1760.    5.682  2.54E-07  7.88E-05  3.66E-33  1.14E-30  0.00E+00  0.00E+00  2.54E-07  7.88E-05  9.35E-03  0.00000
   1762.    5.675  2.10E-07  6.53E-05  1.10E-32  3.41E-30  0.00E+00  0.00E+00  2.10E-07  6.53E-05  9.35E-03  0.00000
   1764.    5.669  2.90E-07  9.02E-05  3.66E-33  1.14E-30  0.00E+00  0.00E+00  2.90E-07  9.02E-05  9.35E-03  0.00000
   1766.    5.663  3.14E-07  9.81E-05  4.50E-43  1.40E-40  0.00E+00  0.00E+00  3.14E-07  9.81E-05  9.35E-03  0.00000
   1768.    5.656  2.34E-07  7.33E-05  1.35E-43  4.21E-41  0.00E+00  0.00E+00  2.34E-07  7.33E-05  9.35E-03  0.00000
   1770.    5.650  1.87E-07  5.85E-05  0.00E+00  0.00E+00  0.00E+00  0.00E+00  1.87E-07  5.85E-05  9.35E-03  0.00000
   1772.    5.643  1.39E-07  4.36E-05  0.00E+00  0.00E+00  0.00E+00  0.00E+00  1.39E-07  4.36E-05  9.35E-03  0.00000
   1774.    5.637  1.76E-07  5.54E-05  0.00E+00  0.00E+00  0.00E+00  0.00E+00  1.76E-07  5.54E-05  9.35E-03  0.00000
   1776.    5.631  2.43E-07  7.68E-05  1.06E-42  3.35E-40  0.00E+00  0.00E+00  2.43E-07  7.68E-05  9.35E-03  0.00000
   1778.    5.624  2.76E-07  8.73E-05  3.19E-42  1.01E-39  0.00E+00  0.00E+00  2.76E-07  8.73E-05  9.35E-03  0.00000
   1780.    5.618  2.25E-07  7.12E-05  1.78E-37  5.63E-35  0.00E+00  0.00E+00  2.25E-07  7.12E-05  9.35E-03  0.00000
   1782.    5.612  2.52E-07  7.99E-05  2.04E-37  6.48E-35  0.00E+00  0.00E+00  2.52E-07  7.99E-05  9.36E-03  0.00000
   1784.    5.605  2.76E-07  8.78E-05  2.91E-31  9.25E-29  0.00E+00  0.00E+00  2.76E-07  8.78E-05  9.36E-03  0.00000
   1786.    5.599  3.20E-07  1.02E-04  2.06E-28  6.56E-26  0.00E+00  0.00E+00  3.20E-07  1.02E-04  9.36E-03  0.00000
   1788.    5.593  3.36E-07  1.07E-04  2.06E-28  6.57E-26  0.00E+00  0.00E+00  3.36E-07  1.07E-04  9.36E-03  0.00000
   1790.    5.587  2.34E-07  7.51E-05  1.44E-32  4.60E-30  0.00E+00  0.00E+00  2.34E-07  7.51E-05  9.36E-03  0.00000
   1792.    5.580  1.54E-07  4.93E-05  8.79E-29  2.82E-26  0.00E+00  0.00E+00  1.54E-07  4.93E-05  9.36E-03  0.00000
   1794.    5.574  1.79E-07  5.76E-05  8.79E-29  2.83E-26  0.00E+00  0.00E+00  1.79E-07  5.76E-05  9.36E-03  0.00000
   1796.    5.568  2.23E-07  7.19E-05  5.25E-43  1.70E-40  0.00E+00  0.00E+00  2.23E-07  7.19E-05  9.36E-03  0.00000
   1798.    5.562  2.39E-07  7.74E-05  3.20E-28  1.04E-25  0.00E+00  0.00E+00  2.39E-07  7.74E-05  9.36E-03  0.00000
   1800.    5.556  1.89E-07  6.13E-05  9.61E-28  3.11E-25  0.00E+00  0.00E+00  1.89E-07  6.13E-05  9.36E-03  0.00000
  iv         1805
1                                             RADIANCE(WATTS/CM2-STER-XXX)
0  FREQ   WAVLEN    PATH THERMAL      SURFACE EMISSION    SURFACE REFLECTED     TOTAL RADIANCE   INTEGRAL    TOTAL
  (CM-1) (MICRN)    (CM-1)   (MICRN)    (CM-1)   (MICRN)    (CM-1)   (MICRN)    (CM-1)   (MICRN)    (CM-1)   TRANS

   1802.    5.549  2.34E-07  7.60E-05  1.46E-25  4.74E-23  0.00E+00  0.00E+00  2.34E-07  7.60E-05  9.36E-03  0.00000
   1804.    5.543  3.28E-07  1.07E-04  4.12E-23  1.34E-20  0.00E+00  0.00E+00  3.28E-07  1.07E-04  9.36E-03  0.00000
   1806.    5.537  3.45E-07  1.12E-04  7.11E-23  2.32E-20  0.00E+00  0.00E+00  3.45E-07  1.12E-04  9.36E-03  0.00000
   1808.    5.531  3.05E-07  9.96E-05  9.01E-23  2.95E-20  0.00E+00  0.00E+00  3.05E-07  9.96E-05  9.36E-03  0.00000
   1810.    5.525  2.33E-07  7.63E-05  6.03E-22  1.97E-19  0.00E+00  0.00E+00  2.33E-07  7.63E-05  9.36E-03  0.00000
   1812.    5.519  2.56E-07  8.41E-05  1.61E-19  5.28E-17  0.00E+00  0.00E+00  2.56E-07  8.41E-05  9.36E-03  0.00000
   1814.    5.513  3.95E-07  1.30E-04  2.95E-17  9.71E-15  0.00E+00  0.00E+00  3.95E-07  1.30E-04  9.36E-03  0.00000
   1816.    5.507  4.02E-07  1.33E-04  4.37E-17  1.44E-14  0.00E+00  0.00E+00  4.02E-07  1.33E-04  9.36E-03  0.00000
   1818.    5.501  4.11E-07  1.36E-04  6.65E-16  2.20E-13  0.00E+00  0.00E+00  4.11E-07  1.36E-04  9.37E-03  0.00000
   1820.    5.495  4.27E-07  1.42E-04  7.56E-16  2.51E-13  0.00E+00  0.00E+00  4.27E-07  1.42E-04  9.37E-03  0.00000
   1822.    5.488  3.35E-07  1.11E-04  4.93E-17  1.64E-14  0.00E+00  0.00E+00  3.35E-07  1.11E-04  9.37E-03  0.00000
   1824.    5.482  2.29E-07  7.64E-05  5.94E-22  1.98E-19  0.00E+00  0.00E+00  2.29E-07  7.64E-05  9.37E-03  0.00000
   1826.    5.476  2.03E-07  6.76E-05  5.94E-22  1.98E-19  0.00E+00  0.00E+00  2.03E-07  6.76E-05  9.37E-03  0.00000
   1828.    5.470  2.04E-07  6.81E-05  0.00E+00  0.00E+00  0.00E+00  0.00E+00  2.04E-07  6.81E-05  9.37E-03  0.00000
   1830.    5.464  1.52E-07  5.10E-05  1.40E-45  4.69E-43  0.00E+00  0.00E+00  1.52E-07  5.10E-05  9.37E-03  0.00000
   1832.    5.459  2.40E-07  8.07E-05  1.32E-23  4.43E-21  0.00E+00  0.00E+00  2.40E-07  8.07E-05  9.37E-03  0.00000
   1834.    5.453  3.20E-07  1.08E-04  3.12E-22  1.05E-19  0.00E+00  0.00E+00  3.20E-07  1.08E-04  9.37E-03  0.00000
   1836.    5.447  2.81E-07  9.48E-05  1.28E-19  4.32E-17  0.00E+00  0.00E+00  2.81E-07  9.48E-05  9.37E-03  0.00000
   1838.    5.441  2.79E-07  9.41E-05  1.29E-19  4.35E-17  0.00E+00  0.00E+00  2.79E-07  9.41E-05  9.37E-03  0.00000
   1840.    5.435  3.27E-07  1.11E-04  1.84E-21  6.22E-19  0.00E+00  0.00E+00  3.27E-07  1.11E-04  9.37E-03  0.00000
   1842.    5.429  2.35E-07  7.98E-05  6.64E-22  2.25E-19  0.00E+00  0.00E+00  2.35E-07  7.98E-05  9.37E-03  0.00000
   1844.    5.423  1.37E-07  4.64E-05  3.86E-22  1.31E-19  0.00E+00  0.00E+00  1.37E-07  4.64E-05  9.37E-03  0.00000
   1846.    5.417  1.68E-07  5.73E-05  1.40E-22  4.78E-20  0.00E+00  0.00E+00  1.68E-07  5.73E-05  9.37E-03  0.00000
   1848.    5.411  2.43E-07  8.29E-05  4.14E-18  1.41E-15  0.00E+00  0.00E+00  2.43E-07  8.29E-05  9.37E-03  0.00000
   1850.    5.405  3.59E-07  1.23E-04  7.13E-15  2.44E-12  0.00E+00  0.00E+00  3.59E-07  1.23E-04  9.37E-03  0.00000
   1852.    5.400  4.11E-07  1.41E-04  2.85E-13  9.76E-11  0.00E+00  0.00E+00  4.11E-07  1.41E-04  9.37E-03  0.00000
   1854.    5.394  4.44E-07  1.53E-04  3.33E-12  1.15E-09  0.00E+00  0.00E+00  4.44E-07  1.53E-04  9.38E-03  0.00000
   1856.    5.388  4.41E-07  1.52E-04  3.81E-12  1.31E-09  0.00E+00  0.00E+00  4.41E-07  1.52E-04  9.38E-03  0.00000
   1858.    5.382  3.65E-07  1.26E-04  7.06E-13  2.44E-10  0.00E+00  0.00E+00  3.65E-07  1.26E-04  9.38E-03  0.00000
   1860.    5.376  3.37E-07  1.17E-04  1.08E-14  3.74E-12  0.00E+00  0.00E+00  3.37E-07  1.17E-04  9.38E-03  0.00000
   1862.    5.371  3.73E-07  1.29E-04  2.63E-14  9.11E-12  0.00E+00  0.00E+00  3.73E-07  1.29E-04  9.38E-03  0.00000
   1864.    5.365  3.37E-07  1.17E-04  1.52E-14  5.28E-12  0.00E+00  0.00E+00  3.37E-07  1.17E-04  9.38E-03  0.00000
   1866.    5.359  2.09E-07  7.28E-05  1.26E-17  4.39E-15  0.00E+00  0.00E+00  2.09E-07  7.28E-05  9.38E-03  0.00000
   1868.    5.353  1.25E-07  4.36E-05  1.40E-26  4.88E-24  0.00E+00  0.00E+00  1.25E-07  4.36E-05  9.38E-03  0.00000
   1870.    5.348  1.64E-07  5.73E-05  2.23E-21  7.80E-19  0.00E+00  0.00E+00  1.64E-07  5.73E-05  9.38E-03  0.00000
   1872.    5.342  3.15E-07  1.10E-04  2.55E-13  8.94E-11  0.00E+00  0.00E+00  3.15E-07  1.10E-04  9.38E-03  0.00000
   1874.    5.336  4.36E-07  1.53E-04  1.17E-11  4.12E-09  0.00E+00  0.00E+00  4.36E-07  1.53E-04  9.38E-03  0.00001
   1876.    5.330  4.60E-07  1.62E-04  7.00E-11  2.46E-08  0.00E+00  0.00E+00  4.61E-07  1.62E-04  9.38E-03  0.00007
   1878.    5.325  4.48E-07  1.58E-04  1.45E-10  5.13E-08  0.00E+00  0.00E+00  4.48E-07  1.58E-04  9.38E-03  0.00015
   1880.    5.319  4.56E-07  1.61E-04  3.13E-10  1.11E-07  0.00E+00  0.00E+00  4.57E-07  1.61E-04  9.38E-03  0.00033
   1882.    5.313  4.74E-07  1.68E-04  4.26E-10  1.51E-07  0.00E+00  0.00E+00  4.74E-07  1.68E-04  9.39E-03  0.00045
   1884.    5.308  3.52E-07  1.25E-04  9.66E-11  3.43E-08  0.00E+00  0.00E+00  3.52E-07  1.25E-04  9.39E-03  0.00010
   1886.    5.302  3.25E-07  1.15E-04  1.68E-14  5.97E-12  0.00E+00  0.00E+00  3.25E-07  1.15E-04  9.39E-03  0.00000
   1888.    5.297  2.82E-07  1.01E-04  5.33E-13  1.90E-10  0.00E+00  0.00E+00  2.82E-07  1.01E-04  9.39E-03  0.00000
   1890.    5.291  2.01E-07  7.20E-05  1.56E-12  5.58E-10  0.00E+00  0.00E+00  2.01E-07  7.20E-05  9.39E-03  0.00000
   1892.    5.285  2.94E-07  1.05E-04  5.23E-13  1.87E-10  0.00E+00  0.00E+00  2.94E-07  1.05E-04  9.39E-03  0.00000
   1894.    5.280  2.68E-07  9.61E-05  5.56E-15  2.00E-12  0.00E+00  0.00E+00  2.68E-07  9.61E-05  9.39E-03  0.00000
   1896.    5.274  2.68E-07  9.64E-05  7.65E-12  2.75E-09  0.00E+00  0.00E+00  2.68E-07  9.64E-05  9.39E-03  0.00001
   1898.    5.269  4.10E-07  1.48E-04  5.47E-10  1.97E-07  0.00E+00  0.00E+00  4.11E-07  1.48E-04  9.39E-03  0.00061
   1900.    5.263  4.69E-07  1.69E-04  1.37E-09  4.94E-07  0.00E+00  0.00E+00  4.70E-07  1.70E-04  9.39E-03  0.00152
  iv         1905
1                                             RADIANCE(WATTS/CM2-STER-XXX)
0  FREQ   WAVLEN    PATH THERMAL      SURFACE EMISSION    SURFACE REFLECTED     TOTAL RADIANCE   INTEGRAL    TOTAL
  (CM-1) (MICRN)    (CM-1)   (MICRN)    (CM-1)   (MICRN)    (CM-1)   (MICRN)    (CM-1)   (MICRN)    (CM-1)   TRANS

   1902.    5.258  4.06E-07  1.47E-04  5.68E-10  2.06E-07  0.00E+00  0.00E+00  4.07E-07  1.47E-04  9.39E-03  0.00063
   1904.    5.252  3.31E-07  1.20E-04  4.92E-11  1.78E-08  0.00E+00  0.00E+00  3.31E-07  1.20E-04  9.39E-03  0.00005
   1906.    5.247  3.06E-07  1.11E-04  3.91E-12  1.42E-09  0.00E+00  0.00E+00  3.06E-07  1.11E-04  9.39E-03  0.00000
   1908.    5.241  2.12E-07  7.71E-05  1.17E-12  4.26E-10  0.00E+00  0.00E+00  2.12E-07  7.71E-05  9.39E-03  0.00000
   1910.    5.236  2.15E-07  7.85E-05  1.35E-12  4.91E-10  0.00E+00  0.00E+00  2.15E-07  7.85E-05  9.39E-03  0.00000
   1912.    5.230  3.31E-07  1.21E-04  1.18E-11  4.33E-09  0.00E+00  0.00E+00  3.31E-07  1.21E-04  9.39E-03  0.00001
   1914.    5.225  3.54E-07  1.30E-04  1.41E-11  5.16E-09  0.00E+00  0.00E+00  3.54E-07  1.30E-04  9.40E-03  0.00002
   1916.    5.219  2.72E-07  9.98E-05  2.03E-12  7.44E-10  0.00E+00  0.00E+00  2.72E-07  9.98E-05  9.40E-03  0.00000
   1918.    5.214  1.62E-07  5.97E-05  1.50E-15  5.50E-13  0.00E+00  0.00E+00  1.62E-07  5.97E-05  9.40E-03  0.00000
   1920.    5.208  1.95E-07  7.18E-05  4.70E-16  1.73E-13  0.00E+00  0.00E+00  1.95E-07  7.18E-05  9.40E-03  0.00000
   1922.    5.203  1.81E-07  6.70E-05  4.08E-22  1.51E-19  0.00E+00  0.00E+00  1.81E-07  6.70E-05  9.40E-03  0.00000
   1924.    5.198  2.15E-07  7.96E-05  6.39E-12  2.36E-09  0.00E+00  0.00E+00  2.15E-07  7.96E-05  9.40E-03  0.00001
   1926.    5.192  3.61E-07  1.34E-04  3.62E-10  1.34E-07  0.00E+00  0.00E+00  3.62E-07  1.34E-04  9.40E-03  0.00044
   1928.    5.187  4.43E-07  1.65E-04  4.36E-09  1.62E-06  0.00E+00  0.00E+00  4.47E-07  1.66E-04  9.40E-03  0.00530
   1930.    5.181  4.68E-07  1.74E-04  9.31E-09  3.47E-06  0.00E+00  0.00E+00  4.78E-07  1.78E-04  9.40E-03  0.01136
   1932.    5.176  3.56E-07  1.33E-04  4.17E-09  1.56E-06  0.00E+00  0.00E+00  3.60E-07  1.34E-04  9.40E-03  0.00511
   1934.    5.171  3.36E-07  1.26E-04  2.87E-09  1.07E-06  0.00E+00  0.00E+00  3.39E-07  1.27E-04  9.40E-03  0.00357
   1936.    5.165  4.35E-07  1.63E-04  6.52E-09  2.45E-06  0.00E+00  0.00E+00  4.41E-07  1.65E-04  9.40E-03  0.00812
   1938.    5.160  4.19E-07  1.57E-04  2.99E-09  1.12E-06  0.00E+00  0.00E+00  4.22E-07  1.58E-04  9.40E-03  0.00373
   1940.    5.155  3.36E-07  1.27E-04  4.05E-10  1.52E-07  0.00E+00  0.00E+00  3.37E-07  1.27E-04  9.40E-03  0.00051
   1942.    5.149  1.96E-07  7.37E-05  2.06E-12  7.77E-10  0.00E+00  0.00E+00  1.96E-07  7.38E-05  9.40E-03  0.00000
   1944.    5.144  1.67E-07  6.32E-05  7.52E-16  2.84E-13  0.00E+00  0.00E+00  1.67E-07  6.32E-05  9.40E-03  0.00000
   1946.    5.139  2.19E-07  8.30E-05  9.95E-11  3.77E-08  0.00E+00  0.00E+00  2.19E-07  8.30E-05  9.40E-03  0.00013
   1948.    5.133  3.43E-07  1.30E-04  9.75E-10  3.70E-07  0.00E+00  0.00E+00  3.44E-07  1.31E-04  9.41E-03  0.00127
   1950.    5.128  4.16E-07  1.58E-04  7.03E-09  2.67E-06  0.00E+00  0.00E+00  4.23E-07  1.61E-04  9.41E-03  0.00919
   1952.    5.123  4.35E-07  1.66E-04  1.50E-08  5.73E-06  0.00E+00  0.00E+00  4.50E-07  1.71E-04  9.41E-03  0.01970
   1954.    5.118  3.43E-07  1.31E-04  6.43E-09  2.46E-06  0.00E+00  0.00E+00  3.49E-07  1.33E-04  9.41E-03  0.00845
   1956.    5.112  3.12E-07  1.19E-04  1.21E-09  4.64E-07  0.00E+00  0.00E+00  3.13E-07  1.20E-04  9.41E-03  0.00162
   1958.    5.107  3.97E-07  1.52E-04  1.20E-08  4.60E-06  0.00E+00  0.00E+00  4.09E-07  1.57E-04  9.41E-03  0.01608
   1960.    5.102  3.76E-07  1.44E-04  1.19E-08  4.57E-06  0.00E+00  0.00E+00  3.88E-07  1.49E-04  9.41E-03  0.01596
   1962.    5.097  3.61E-07  1.39E-04  5.13E-09  1.97E-06  0.00E+00  0.00E+00  3.66E-07  1.41E-04  9.41E-03  0.00696
   1964.    5.092  3.77E-07  1.46E-04  5.70E-09  2.20E-06  0.00E+00  0.00E+00  3.83E-07  1.48E-04  9.41E-03  0.00776
   1966.    5.086  2.33E-07  9.01E-05  7.66E-10  2.96E-07  0.00E+00  0.00E+00  2.34E-07  9.04E-05  9.41E-03  0.00104
   1968.    5.081  2.41E-07  9.33E-05  7.65E-10  2.96E-07  0.00E+00  0.00E+00  2.42E-07  9.35E-05  9.41E-03  0.00106
   1970.    5.076  3.89E-07  1.51E-04  2.08E-08  8.07E-06  0.00E+00  0.00E+00  4.10E-07  1.59E-04  9.41E-03  0.02904
   1972.    5.071  4.31E-07  1.67E-04  7.17E-08  2.79E-05  0.00E+00  0.00E+00  5.02E-07  1.95E-04  9.41E-03  0.10049
   1974.    5.066  4.12E-07  1.61E-04  9.15E-08  3.56E-05  0.00E+00  0.00E+00  5.03E-07  1.96E-04  9.42E-03  0.12877
   1976.    5.061  3.89E-07  1.52E-04  5.87E-08  2.29E-05  0.00E+00  0.00E+00  4.48E-07  1.75E-04  9.42E-03  0.08310
   1978.    5.056  3.96E-07  1.55E-04  9.56E-08  3.74E-05  0.00E+00  0.00E+00  4.92E-07  1.92E-04  9.42E-03  0.13669
   1980.    5.051  3.93E-07  1.54E-04  1.18E-07  4.64E-05  0.00E+00  0.00E+00  5.12E-07  2.01E-04  9.42E-03  0.16974
   1982.    5.045  4.02E-07  1.58E-04  8.67E-08  3.40E-05  0.00E+00  0.00E+00  4.89E-07  1.92E-04  9.42E-03  0.12526
   1984.    5.040  4.10E-07  1.62E-04  6.33E-08  2.49E-05  0.00E+00  0.00E+00  4.74E-07  1.86E-04  9.42E-03  0.09204
   1986.    5.035  3.62E-07  1.43E-04  2.13E-08  8.39E-06  0.00E+00  0.00E+00  3.83E-07  1.51E-04  9.42E-03  0.03106
   1988.    5.030  2.58E-07  1.02E-04  1.73E-09  6.84E-07  0.00E+00  0.00E+00  2.59E-07  1.02E-04  9.42E-03  0.00253
   1990.    5.025  2.29E-07  9.06E-05  1.65E-11  6.54E-09  0.00E+00  0.00E+00  2.29E-07  9.06E-05  9.42E-03  0.00002
   1992.    5.020  1.74E-07  6.91E-05  1.88E-12  7.48E-10  0.00E+00  0.00E+00  1.74E-07  6.91E-05  9.42E-03  0.00000
   1994.    5.015  2.75E-07  1.09E-04  5.02E-09  2.00E-06  0.00E+00  0.00E+00  2.80E-07  1.11E-04  9.42E-03  0.00759
   1996.    5.010  3.82E-07  1.52E-04  2.12E-08  8.43E-06  0.00E+00  0.00E+00  4.03E-07  1.61E-04  9.42E-03  0.03209
   1998.    5.005  3.35E-07  1.34E-04  1.61E-08  6.43E-06  0.00E+00  0.00E+00  3.51E-07  1.40E-04  9.42E-03  0.02450
   2000.    5.000  3.36E-07  1.34E-04  4.81E-08  1.92E-05  0.00E+00  0.00E+00  3.84E-07  1.54E-04  9.43E-03  0.07406
  iv         2005
1                                             RADIANCE(WATTS/CM2-STER-XXX)
0  FREQ   WAVLEN    PATH THERMAL      SURFACE EMISSION    SURFACE REFLECTED     TOTAL RADIANCE   INTEGRAL    TOTAL
  (CM-1) (MICRN)    (CM-1)   (MICRN)    (CM-1)   (MICRN)    (CM-1)   (MICRN)    (CM-1)   (MICRN)    (CM-1)   TRANS

   2002.    4.995  3.62E-07  1.45E-04  1.23E-07  4.94E-05  0.00E+00  0.00E+00  4.85E-07  1.94E-04  9.43E-03  0.19047
   2004.    4.990  3.50E-07  1.41E-04  1.45E-07  5.84E-05  0.00E+00  0.00E+00  4.96E-07  1.99E-04  9.43E-03  0.22602
   2006.    4.985  3.44E-07  1.39E-04  8.00E-08  3.22E-05  0.00E+00  0.00E+00  4.24E-07  1.71E-04  9.43E-03  0.12487
   2008.    4.980  3.07E-07  1.24E-04  1.33E-08  5.37E-06  0.00E+00  0.00E+00  3.20E-07  1.29E-04  9.43E-03  0.02094
   2010.    4.975  3.35E-07  1.35E-04  4.60E-08  1.86E-05  0.00E+00  0.00E+00  3.80E-07  1.54E-04  9.43E-03  0.07318
   2012.    4.970  3.61E-07  1.46E-04  9.52E-08  3.85E-05  0.00E+00  0.00E+00  4.56E-07  1.85E-04  9.43E-03  0.15199
   2014.    4.965  3.47E-07  1.41E-04  5.63E-08  2.28E-05  0.00E+00  0.00E+00  4.03E-07  1.64E-04  9.43E-03  0.09024
   2016.    4.960  2.38E-07  9.68E-05  7.45E-09  3.03E-06  0.00E+00  0.00E+00  2.46E-07  9.98E-05  9.43E-03  0.01197
   2018.    4.955  1.80E-07  7.34E-05  4.07E-12  1.66E-09  0.00E+00  0.00E+00  1.80E-07  7.34E-05  9.43E-03  0.00001
   2020.    4.950  2.78E-07  1.13E-04  1.18E-08  4.82E-06  0.00E+00  0.00E+00  2.90E-07  1.18E-04  9.43E-03  0.01944
   2022.    4.946  3.29E-07  1.35E-04  2.28E-08  9.34E-06  0.00E+00  0.00E+00  3.52E-07  1.44E-04  9.43E-03  0.03767
   2024.    4.941  3.25E-07  1.33E-04  3.27E-08  1.34E-05  0.00E+00  0.00E+00  3.58E-07  1.46E-04  9.43E-03  0.05449
   2026.    4.936  3.15E-07  1.29E-04  3.98E-08  1.64E-05  0.00E+00  0.00E+00  3.55E-07  1.46E-04  9.43E-03  0.06661
   2028.    4.931  2.90E-07  1.19E-04  9.76E-08  4.02E-05  0.00E+00  0.00E+00  3.87E-07  1.59E-04  9.44E-03  0.16494
   2030.    4.926  2.67E-07  1.10E-04  2.06E-07  8.50E-05  0.00E+00  0.00E+00  4.74E-07  1.95E-04  9.44E-03  0.35019
   2032.    4.921  2.48E-07  1.02E-04  2.24E-07  9.26E-05  0.00E+00  0.00E+00  4.72E-07  1.95E-04  9.44E-03  0.38256
   2034.    4.916  2.76E-07  1.14E-04  1.52E-07  6.30E-05  0.00E+00  0.00E+00  4.28E-07  1.77E-04  9.44E-03  0.26138
   2036.    4.912  2.78E-07  1.15E-04  1.22E-07  5.07E-05  0.00E+00  0.00E+00  4.00E-07  1.66E-04  9.44E-03  0.21129
   2038.    4.907  2.83E-07  1.18E-04  6.43E-08  2.67E-05  0.00E+00  0.00E+00  3.47E-07  1.44E-04  9.44E-03  0.11171
   2040.    4.902  2.58E-07  1.07E-04  2.56E-08  1.07E-05  0.00E+00  0.00E+00  2.83E-07  1.18E-04  9.44E-03  0.04476
   2042.    4.897  2.24E-07  9.33E-05  1.76E-09  7.36E-07  0.00E+00  0.00E+00  2.25E-07  9.40E-05  9.44E-03  0.00311
   2044.    4.892  2.50E-07  1.05E-04  3.12E-08  1.30E-05  0.00E+00  0.00E+00  2.82E-07  1.18E-04  9.44E-03  0.05567
   2046.    4.888  2.65E-07  1.11E-04  6.30E-08  2.64E-05  0.00E+00  0.00E+00  3.28E-07  1.37E-04  9.44E-03  0.11272
   2048.    4.883  2.29E-07  9.59E-05  1.10E-07  4.62E-05  0.00E+00  0.00E+00  3.39E-07  1.42E-04  9.44E-03  0.19882
   2050.    4.878  1.99E-07  8.35E-05  1.57E-07  6.58E-05  0.00E+00  0.00E+00  3.55E-07  1.49E-04  9.44E-03  0.28404
   2052.    4.873  1.96E-07  8.25E-05  1.39E-07  5.85E-05  0.00E+00  0.00E+00  3.35E-07  1.41E-04  9.44E-03  0.25334
   2054.    4.869  1.92E-07  8.09E-05  1.37E-07  5.77E-05  0.00E+00  0.00E+00  3.28E-07  1.39E-04  9.44E-03  0.25139
   2056.    4.864  1.76E-07  7.44E-05  1.62E-07  6.85E-05  0.00E+00  0.00E+00  3.38E-07  1.43E-04  9.45E-03  0.29992
   2058.    4.859  1.91E-07  8.07E-05  1.18E-07  5.01E-05  0.00E+00  0.00E+00  3.09E-07  1.31E-04  9.45E-03  0.21986
   2060.    4.854  2.01E-07  8.54E-05  5.00E-08  2.12E-05  0.00E+00  0.00E+00  2.51E-07  1.07E-04  9.45E-03  0.09357
   2062.    4.850  2.07E-07  8.79E-05  4.64E-08  1.97E-05  0.00E+00  0.00E+00  2.53E-07  1.08E-04  9.45E-03  0.08761
   2064.    4.845  1.68E-07  7.16E-05  1.91E-08  8.14E-06  0.00E+00  0.00E+00  1.87E-07  7.98E-05  9.45E-03  0.03614
   2066.    4.840  1.74E-07  7.45E-05  1.91E-08  8.16E-06  0.00E+00  0.00E+00  1.94E-07  8.26E-05  9.45E-03  0.03676
   2068.    4.836  1.97E-07  8.44E-05  8.55E-08  3.66E-05  0.00E+00  0.00E+00  2.83E-07  1.21E-04  9.45E-03  0.16519
   2070.    4.831  1.67E-07  7.16E-05  1.53E-07  6.56E-05  0.00E+00  0.00E+00  3.20E-07  1.37E-04  9.45E-03  0.29696
   2072.    4.826  1.83E-07  7.85E-05  1.18E-07  5.06E-05  0.00E+00  0.00E+00  3.01E-07  1.29E-04  9.45E-03  0.22973
   2074.    4.822  2.06E-07  8.87E-05  7.00E-08  3.01E-05  0.00E+00  0.00E+00  2.76E-07  1.19E-04  9.45E-03  0.13758
   2076.    4.817  1.50E-07  6.46E-05  6.25E-08  2.69E-05  0.00E+00  0.00E+00  2.12E-07  9.15E-05  9.45E-03  0.12355
   2078.    4.812  1.04E-07  4.49E-05  3.16E-08  1.36E-05  0.00E+00  0.00E+00  1.35E-07  5.85E-05  9.45E-03  0.06301
   2080.    4.808  1.65E-07  7.14E-05  7.88E-08  3.41E-05  0.00E+00  0.00E+00  2.44E-07  1.05E-04  9.45E-03  0.15829
   2082.    4.803  1.68E-07  7.28E-05  1.35E-07  5.86E-05  0.00E+00  0.00E+00  3.03E-07  1.31E-04  9.45E-03  0.27350
   2084.    4.798  1.51E-07  6.58E-05  1.82E-07  7.89E-05  0.00E+00  0.00E+00  3.33E-07  1.45E-04  9.45E-03  0.36966
   2086.    4.794  1.81E-07  7.89E-05  1.27E-07  5.51E-05  0.00E+00  0.00E+00  3.08E-07  1.34E-04  9.45E-03  0.25904
   2088.    4.789  2.16E-07  9.43E-05  4.67E-08  2.04E-05  0.00E+00  0.00E+00  2.63E-07  1.15E-04  9.45E-03  0.09600
   2090.    4.785  2.02E-07  8.82E-05  2.62E-08  1.14E-05  0.00E+00  0.00E+00  2.28E-07  9.96E-05  9.45E-03  0.05436
   2092.    4.780  1.92E-07  8.39E-05  5.95E-08  2.60E-05  0.00E+00  0.00E+00  2.51E-07  1.10E-04  9.45E-03  0.12450
   2094.    4.776  1.72E-07  7.54E-05  1.02E-07  4.47E-05  0.00E+00  0.00E+00  2.74E-07  1.20E-04  9.46E-03  0.21498
   2096.    4.771  1.65E-07  7.24E-05  1.51E-07  6.64E-05  0.00E+00  0.00E+00  3.16E-07  1.39E-04  9.46E-03  0.32021
   2098.    4.766  1.57E-07  6.91E-05  1.68E-07  7.39E-05  0.00E+00  0.00E+00  3.25E-07  1.43E-04  9.46E-03  0.35803
   2100.    4.762  1.54E-07  6.81E-05  1.65E-07  7.28E-05  0.00E+00  0.00E+00  3.20E-07  1.41E-04  9.46E-03  0.35473
  iv         2105
1                                             RADIANCE(WATTS/CM2-STER-XXX)
0  FREQ   WAVLEN    PATH THERMAL      SURFACE EMISSION    SURFACE REFLECTED     TOTAL RADIANCE   INTEGRAL    TOTAL
  (CM-1) (MICRN)    (CM-1)   (MICRN)    (CM-1)   (MICRN)    (CM-1)   (MICRN)    (CM-1)   (MICRN)    (CM-1)   TRANS

   2102.    4.757  1.25E-07  5.51E-05  2.21E-07  9.77E-05  0.00E+00  0.00E+00  3.46E-07  1.53E-04  9.46E-03  0.47858
   2104.    4.753  1.12E-07  4.98E-05  2.35E-07  1.04E-04  0.00E+00  0.00E+00  3.48E-07  1.54E-04  9.46E-03  0.51235
   2106.    4.748  1.45E-07  6.43E-05  1.59E-07  7.07E-05  0.00E+00  0.00E+00  3.04E-07  1.35E-04  9.46E-03  0.34892
   2108.    4.744  1.40E-07  6.24E-05  1.64E-07  7.30E-05  0.00E+00  0.00E+00  3.05E-07  1.35E-04  9.46E-03  0.36283
   2110.    4.739  1.05E-07  4.66E-05  2.44E-07  1.09E-04  0.00E+00  0.00E+00  3.49E-07  1.55E-04  9.46E-03  0.54282
   2112.    4.735  1.26E-07  5.61E-05  2.30E-07  1.03E-04  0.00E+00  0.00E+00  3.55E-07  1.59E-04  9.46E-03  0.51369
   2114.    4.730  1.75E-07  7.80E-05  8.66E-08  3.87E-05  0.00E+00  0.00E+00  2.61E-07  1.17E-04  9.46E-03  0.19432
   2116.    4.726  1.67E-07  7.49E-05  8.50E-08  3.81E-05  0.00E+00  0.00E+00  2.52E-07  1.13E-04  9.46E-03  0.19351
   2118.    4.721  1.09E-07  4.88E-05  2.09E-07  9.38E-05  0.00E+00  0.00E+00  3.18E-07  1.43E-04  9.46E-03  0.47796
   2120.    4.717  1.07E-07  4.80E-05  1.99E-07  8.96E-05  0.00E+00  0.00E+00  3.06E-07  1.38E-04  9.46E-03  0.45806
   2122.    4.713  1.45E-07  6.54E-05  1.38E-07  6.22E-05  0.00E+00  0.00E+00  2.83E-07  1.28E-04  9.46E-03  0.31961
   2124.    4.708  1.49E-07  6.74E-05  1.27E-07  5.74E-05  0.00E+00  0.00E+00  2.77E-07  1.25E-04  9.46E-03  0.29685
   2126.    4.704  1.02E-07  4.60E-05  2.12E-07  9.56E-05  0.00E+00  0.00E+00  3.13E-07  1.42E-04  9.47E-03  0.49714
   2128.    4.699  8.20E-08  3.72E-05  2.39E-07  1.08E-04  0.00E+00  0.00E+00  3.21E-07  1.45E-04  9.47E-03  0.56379
   2130.    4.695  9.31E-08  4.23E-05  2.19E-07  9.95E-05  0.00E+00  0.00E+00  3.12E-07  1.42E-04  9.47E-03  0.52214
   2132.    4.690  7.88E-08  3.58E-05  2.85E-07  1.29E-04  0.00E+00  0.00E+00  3.63E-07  1.65E-04  9.47E-03  0.68193
   2134.    4.686  9.32E-08  4.25E-05  2.70E-07  1.23E-04  0.00E+00  0.00E+00  3.63E-07  1.65E-04  9.47E-03  0.65117
   2136.    4.682  1.63E-07  7.45E-05  1.14E-07  5.21E-05  0.00E+00  0.00E+00  2.77E-07  1.27E-04  9.47E-03  0.27632
   2138.    4.677  2.01E-07  9.20E-05  5.05E-08  2.31E-05  0.00E+00  0.00E+00  2.52E-07  1.15E-04  9.47E-03  0.12376
   2140.    4.673  1.68E-07  7.69E-05  1.43E-07  6.53E-05  0.00E+00  0.00E+00  3.10E-07  1.42E-04  9.47E-03  0.35182
   2142.    4.669  1.09E-07  5.01E-05  2.52E-07  1.15E-04  0.00E+00  0.00E+00  3.61E-07  1.66E-04  9.47E-03  0.62410
   2144.    4.664  1.21E-07  5.58E-05  2.13E-07  9.81E-05  0.00E+00  0.00E+00  3.35E-07  1.54E-04  9.47E-03  0.53218
   2146.    4.660  1.68E-07  7.75E-05  1.32E-07  6.06E-05  0.00E+00  0.00E+00  3.00E-07  1.38E-04  9.47E-03  0.33054
   2148.    4.655  1.45E-07  6.70E-05  1.79E-07  8.25E-05  0.00E+00  0.00E+00  3.24E-07  1.49E-04  9.47E-03  0.45288
   2150.    4.651  1.01E-07  4.65E-05  2.50E-07  1.16E-04  0.00E+00  0.00E+00  3.51E-07  1.62E-04  9.47E-03  0.63778
   2152.    4.647  1.15E-07  5.35E-05  2.16E-07  9.98E-05  0.00E+00  0.00E+00  3.31E-07  1.53E-04  9.47E-03  0.55291
   2154.    4.643  1.11E-07  5.17E-05  2.18E-07  1.01E-04  0.00E+00  0.00E+00  3.29E-07  1.53E-04  9.47E-03  0.56336
   2156.    4.638  1.05E-07  4.89E-05  2.30E-07  1.07E-04  0.00E+00  0.00E+00  3.35E-07  1.56E-04  9.47E-03  0.59832
   2158.    4.634  8.84E-08  4.12E-05  2.51E-07  1.17E-04  0.00E+00  0.00E+00  3.40E-07  1.58E-04  9.48E-03  0.65865
   2160.    4.630  1.07E-07  4.98E-05  2.20E-07  1.02E-04  0.00E+00  0.00E+00  3.26E-07  1.52E-04  9.48E-03  0.57823
   2162.    4.625  1.53E-07  7.14E-05  1.27E-07  5.92E-05  0.00E+00  0.00E+00  2.80E-07  1.31E-04  9.48E-03  0.33646
   2164.    4.621  1.06E-07  4.98E-05  2.06E-07  9.63E-05  0.00E+00  0.00E+00  3.12E-07  1.46E-04  9.48E-03  0.55069
   2166.    4.617  6.74E-08  3.16E-05  2.73E-07  1.28E-04  0.00E+00  0.00E+00  3.40E-07  1.59E-04  9.48E-03  0.73391
   2168.    4.613  5.50E-08  2.59E-05  2.87E-07  1.35E-04  0.00E+00  0.00E+00  3.42E-07  1.61E-04  9.48E-03  0.77760
   2170.    4.608  6.89E-08  3.25E-05  2.58E-07  1.22E-04  0.00E+00  0.00E+00  3.27E-07  1.54E-04  9.48E-03  0.70462
   2172.    4.604  8.75E-08  4.13E-05  2.29E-07  1.08E-04  0.00E+00  0.00E+00  3.17E-07  1.49E-04  9.48E-03  0.62991
   2174.    4.600  6.18E-08  2.92E-05  2.68E-07  1.27E-04  0.00E+00  0.00E+00  3.30E-07  1.56E-04  9.48E-03  0.74148
   2176.    4.596  5.12E-08  2.42E-05  2.80E-07  1.33E-04  0.00E+00  0.00E+00  3.31E-07  1.57E-04  9.48E-03  0.78019
   2178.    4.591  4.98E-08  2.36E-05  2.79E-07  1.32E-04  0.00E+00  0.00E+00  3.29E-07  1.56E-04  9.48E-03  0.78367
   2180.    4.587  7.52E-08  3.57E-05  2.35E-07  1.12E-04  0.00E+00  0.00E+00  3.10E-07  1.47E-04  9.48E-03  0.66331
   2182.    4.583  7.41E-08  3.53E-05  2.34E-07  1.12E-04  0.00E+00  0.00E+00  3.08E-07  1.47E-04  9.48E-03  0.66709
   2184.    4.579  7.39E-08  3.52E-05  2.35E-07  1.12E-04  0.00E+00  0.00E+00  3.09E-07  1.47E-04  9.48E-03  0.67190
   2186.    4.575  1.09E-07  5.21E-05  1.74E-07  8.32E-05  0.00E+00  0.00E+00  2.83E-07  1.35E-04  9.48E-03  0.50217
   2188.    4.570  9.57E-08  4.58E-05  1.93E-07  9.22E-05  0.00E+00  0.00E+00  2.88E-07  1.38E-04  9.48E-03  0.55966
   2190.    4.566  6.57E-08  3.15E-05  2.41E-07  1.15E-04  0.00E+00  0.00E+00  3.06E-07  1.47E-04  9.49E-03  0.70377
   2192.    4.562  6.70E-08  3.22E-05  2.35E-07  1.13E-04  0.00E+00  0.00E+00  3.02E-07  1.45E-04  9.49E-03  0.69108
   2194.    4.558  6.77E-08  3.26E-05  2.29E-07  1.10E-04  0.00E+00  0.00E+00  2.97E-07  1.43E-04  9.49E-03  0.67955
   2196.    4.554  4.60E-08  2.22E-05  2.59E-07  1.25E-04  0.00E+00  0.00E+00  3.04E-07  1.47E-04  9.49E-03  0.77223
   2198.    4.550  6.18E-08  2.99E-05  2.32E-07  1.12E-04  0.00E+00  0.00E+00  2.94E-07  1.42E-04  9.49E-03  0.69749
   2200.    4.545  7.75E-08  3.75E-05  2.03E-07  9.84E-05  0.00E+00  0.00E+00  2.81E-07  1.36E-04  9.49E-03  0.61574
0INTEGRATED ABSORPTION FROM    2 TO 2200 CM-1 =   1913.14 CM-1
 AVERAGE TRANSMITTANCE =0.1296

0INTEGRATED RADIANCE =  9.488E-03 WATTS CM-2 STER-1
 MINIMUM RADIANCE    =  1.193E-09 WATTS CM-2 STER-1 (CM-1)-1 AT        2.0 CM-1
 MAXIMUM RADIANCE    =  1.272E-05 WATTS CM-2 STER-1 (CM-1)-1 AT      560.0 CM-1
 BOUNDARY TEMPERATURE =     300.70 K
 BOUNDARY EMISSIVITY =       0.971
0 CARD 5 *****    0


